File: VFSWV_data_prep/Example_data/CoPc_VFSWV_txt_data/CoPc_CNT_VFSWV_scans_44_43_C02.txt
Ewe/V	<I>/mA
-0.122481	0.00833217
-0.0723738	0.0335936
-0.132453	0.00961474
-0.0823654	0.0360373
-0.142456	0.00843107
-0.0923608	0.0301189
-0.152463	0.0019018
-0.102341	0.03703
-0.162432	0.00602555
-0.112382	0.0308826
-0.172481	0.009462
-0.122488	0.0333645
-0.182438	0.00820197
-0.132453	0.0355791
-0.192441	0.00789651
-0.142468	0.0298135
-0.202463	0.00560554
-0.15249	0.0300044
-0.212386	0.00404004
-0.162413	0.033059
-0.222416	0.00442187
-0.172412	0.0317226
-0.23243	-0.00500929
-0.182461	0.0347009
-0.242479	-0.00539112
-0.192468	0.0324863
-0.252429	-0.000580083
-0.202413	0.031379
-0.262405	0.00285637
-0.212428	0.0321044
-0.272393	-0.00199285
-0.222469	0.0297371
-0.282384	-0.000847363
-0.232419	0.0348154
-0.292372	-0.00386381
-0.24246	0.0374118
-0.302421	-0.00951487
-0.252429	0.0316844
-0.312393	-0.00554385
-0.262424	0.0369536
-0.322431	-0.00955305
-0.272419	0.0340899
-0.33238	-0.00390199
-0.282407	0.033479
-0.342364	-0.00802574
-0.292399	0.0351972
-0.352367	-0.0110804
-0.302421	0.0323717
-0.362363	-0.0123786
-0.312344	0.0358463
-0.372404	-0.0173805
-0.322442	0.0344336
-0.38238	-0.0167314
-0.332331	0.0416501
-0.392364	-0.017686
-0.342399	0.0371827
-0.402379	-0.016006
-0.352386	0.0369918
-0.412397	-0.0197097
-0.362386	0.0326772
-0.422343	-0.0281481
-0.372412	0.0405428
-0.432342	-0.0337992
-0.382361	0.0393592
-0.442414	-0.0402139
-0.392376	0.0404665
-0.452341	-0.0468195
-0.402344	0.045583
-0.462386	-0.0618635
-0.412363	0.0461175
-0.472309	-0.0801913
-0.422328	0.0539832
-0.482376	-0.101612
-0.432296	0.0524177
-0.492326	-0.134105
-0.442387	0.0608179
-0.502375	-0.172174
-0.45236	0.0753656
-0.512317	-0.216886
-0.462389	0.0954879
-0.522327	-0.264729
-0.472389	0.115152
-0.532407	-0.309403
-0.482338	0.1528
-0.542471	-0.353122
-0.49233	0.198467
-0.552436	-0.386227
-0.502295	0.235008
-0.562447	-0.400851
-0.512347	0.272962
-0.572442	-0.403944
-0.522366	0.302668
-0.582411	-0.398904
-0.532384	0.314467
-0.592414	-0.366601
-0.542448	0.319048
-0.602409	-0.335444
-0.552409	0.308281
-0.612401	-0.297375
-0.562431	0.282966
-0.622392	-0.267555
-0.572373	0.263645
-0.632453	-0.240368
-0.582388	0.227371
-0.642425	-0.222537
-0.59241	0.194038
-0.652401	-0.210089
-0.602432	0.166432
-0.662378	-0.194205
-0.612401	0.14692
-0.672392	-0.194358
-0.622396	0.122025
-0.682388	-0.190043
-0.632414	0.118932
-0.692398	-0.17519
-0.642414	0.103354
-0.702356	-0.172708
-0.652375	0.101864
-0.712381	-0.17099
-0.662336	0.095717
-0.722365	-0.170646
-0.672396	0.0834985
-0.732349	-0.172785
-0.682369	0.0828876
-0.74236	-0.169272
-0.692395	0.087355
-0.752398	-0.168317
-0.702352	0.0789166
-0.762343	-0.16763
-0.712366	0.0749838
-0.772343	-0.175801
-0.722312	0.077962
-0.782338	-0.177481
-0.732376	0.0740292
-0.792352	-0.177328
-0.742307	0.0730746
-0.802394	-0.174388
-0.75234	0.0715473
-0.812343	-0.175648
-0.762351	0.076282
-0.82235	-0.171181
-0.772362	0.0722728
-0.832346	-0.17477
-0.782376	0.0726164
-0.842322	-0.169425
-0.792341	0.0723873
-0.852367	-0.163239
-0.802359	0.0688363
-0.862404	-0.157932
-0.812374	0.068149
-0.872411	-0.156786
-0.822339	0.0688363
-0.882319	-0.145599
-0.832311	0.0621161
-0.892337	-0.140444
-0.842326	0.0628798
-0.90231	-0.133036
-0.852321	0.0519595
-0.912358	-0.128493
-0.862385	0.0557014
-0.922392	-0.125133
-0.872362	0.0519977
-0.932429	-0.119978
-0.882349	0.0469576
-0.942417	-0.121047
-0.892349	0.0443611
-0.952352	-0.113678
-0.902336	0.0372209
-0.962393	-0.111807
-0.912381	0.0388628
-0.972411	-0.112036
-0.922293	0.0459648
-0.98241	-0.107263
-0.932456	0.0413447
-0.992448	-0.110012
-0.942402	0.0413447
-1.00237	-0.112227
-0.952397	0.0402374
-1.01241	-0.109936
-0.962385	0.0440175
-1.02239	-0.107645
-0.972426	0.0422611
-1.03239	-0.111692
-0.982418	0.0425283
-1.04244	-0.112952
-0.992409	0.0485231
-1.0524	-0.111463
-1.00242	0.0385191
-1.06237	-0.11658
-1.0124	0.042032
-1.07238	-0.123605
-1.02235	0.0465757
-1.08239	-0.123109
-1.03241	0.0450102
-1.09238	-0.12876
-1.04244	0.0447811
-1.10244	-0.128416
-1.0524	0.0484849
-1.1124	-0.136511
-1.06241	0.0448193
-1.12243	-0.140253
-1.07235	0.0528377