File: VFSWV_data_prep/Example_data/CoPc_VFSWV_txt_data/CoPc_CNT_VFSWV_scans_66_65_C02.txt
Ewe/V	<I>/mA
-0.122642	0.0253235
-0.0727069	0.0287705
-0.132695	0.0235298
-0.0827329	0.0263598
-0.142637	0.0240164
-0.0926901	0.0233576
-0.152659	0.0189254
-0.102663	0.028531
-0.162643	0.0225714
-0.112631	0.0269962
-0.172623	0.022272
-0.122676	0.027101
-0.182649	0.0244956
-0.132656	0.0281267
-0.192614	0.0234175
-0.142682	0.0245779
-0.202605	0.0212238
-0.15267	0.0271833
-0.212589	0.024533
-0.16265	0.026779
-0.222611	0.023702
-0.172684	0.0283213
-0.232675	0.0223768
-0.182634	0.0299834
-0.242587	0.0264272
-0.192648	0.0277374
-0.252636	0.0221372
-0.202617	0.0278646
-0.262608	0.0232752
-0.212608	0.0268988
-0.272741	0.0202281
-0.2226	0.0239341
-0.282652	0.0206324
-0.232637	0.0251245
-0.292747	0.0198912
-0.242606	0.0257683
-0.302674	0.0185211
-0.252647	0.0254164
-0.312719	0.0178922
-0.262578	0.0244282
-0.322676	0.0153167
-0.272691	0.0272133
-0.332691	0.0219276
-0.282702	0.0243309
-0.342652	0.0158034
-0.292675	0.0316305
-0.35267	0.0161927
-0.30267	0.0246303
-0.362669	0.0151894
-0.3127	0.0258881
-0.372649	0.0152493
-0.322691	0.0255886
-0.382649	0.0151445
-0.332725	0.0202281
-0.39269	0.0130033
-0.342713	0.022257
-0.402647	0.0149948
-0.352685	0.0283663
-0.412642	0.0179596
-0.362681	0.0327535
-0.422687	0.0206024
-0.372684	0.0335322
-0.432633	0.0159905
-0.382687	0.0311289
-0.442644	0.0193072
-0.392686	0.0297738
-0.452662	0.0160729
-0.40267	0.0307096
-0.462673	0.0136471
-0.412654	0.0266518
-0.472657	0.0119027
-0.42263	0.0296765
-0.482622	0.0112514
-0.432668	0.031376
-0.492644	0.0167242
-0.442652	0.033622
-0.502609	0.0133177
-0.452632	0.0337942
-0.512623	0.0104578
-0.462638	0.0277673
-0.522634	0.00726088
-0.472695	0.0256186
-0.532568	0.00427363
-0.48266	0.026225
-0.542598	0.000934504
-0.492674	0.0267266
-0.552582	0.00348751
-0.502582	0.0400158
-0.562589	0.00766517
-0.512627	0.0344006
-0.57258	0.00930478
-0.522649	0.0389227
-0.582568	0.00161581
-0.532603	0.0362649
-0.592602	0.00249176
-0.542636	0.036497
-0.602593	0.00346505
-0.552597	0.0337643
-0.612627	0.00126392
-0.562577	0.0362948
-0.622557	-0.00162599
-0.572599	0.0323118
-0.632557	-0.00431377
-0.582618	0.033607
-0.642529	1.36233e-05
-0.592586	0.0345653
-0.652578	-0.00194044
-0.602586	0.0350745
-0.662562	-0.00105699
-0.612577	0.0334573
-0.672615	-0.00501004
-0.622569	0.0328883
-0.682602	-0.00212761
-0.63258	0.029654
-0.692663	-0.00376723
-0.642506	0.0343482
-0.702673	-0.00340786
-0.652582	0.0276101
-0.712627	-0.00900052
-0.6626	0.0295866
-0.722638	-0.00834168
-0.672592	0.0281192
-0.732641	-0.0067395
-0.682652	0.028793
-0.742647	-0.0061705
-0.692586	0.0287406
-0.752605	-0.004748
-0.702643	0.0332177
-0.762619	-0.00333299
-0.712673	0.0314808
-0.772637	-0.00396937
-0.722649	0.0329257
-0.782618	-0.00316079
-0.732641	0.032761
-0.79264	-0.00601328
-0.742613	0.0315032
-0.802662	-0.00550417
-0.75265	0.0310091
-0.812589	-0.00437366
-0.762577	0.0311888
-0.822653	-0.00136395
-0.772626	0.0298187
-0.832614	-0.00524962
-0.782652	0.0348498
-0.842647	-0.00292122
-0.792602	0.0330904
-0.852635	-0.000697626
-0.802635	0.0313236
-0.862623	0.000807227
-0.812547	0.0296839
-0.872634	-0.00169337
-0.822561	0.0309642
-0.882572	0.00249925
-0.832644	0.0305299
-0.892594	0.000664977
-0.842621	0.0298486
-0.902574	0.00431106
-0.852662	0.0311064
-0.912577	0.00286611
-0.862611	0.0322444
-0.922588	0.0059956
-0.872637	0.0295791
-0.932587	0.00722344
-0.882572	0.0331953
-0.942575	0.00615283
-0.892575	0.0335172
-0.952597	0.00717103
-0.902585	0.032484
-0.962558	0.00886306
-0.912512	0.0294743
-0.972584	0.00911012
-0.922576	0.0278047
-0.982614	0.00735072
-0.932614	0.0303877
-0.992552	0.00911012
-0.942506	0.0300882
-1.00256	0.00970158
-0.952547	0.0281566
-1.01255	0.00677423
-0.962539	0.0288679
-1.0226	0.0064523
-0.972546	0.0320722
-1.03253	0.00768763
-0.98264	0.0314134
-1.04258	0.00478273
-0.992525	0.0324316
-1.05255	0.00500734
-1.00256	0.0297289
-1.06255	0.00498488
-1.01256	0.0313685
-1.07256	0.00496991
-1.02255	0.0307471
-1.08246	0.0108171
-1.03258	0.0291823
-1.09264	0.002926
-1.04251	0.0327985
-1.10262	0.00256663
-1.05255	0.0321471
-1.11265	0.000769793
-1.06251	0.0286957
-1.12258	-0.00134149
-1.07251	0.0319225