File: VFSWV_data_prep/Example_data/CoPc_VFSWV_txt_data/CoPc_CNT_VFSWV_scans_29_28_C02.txt
Ewe/V	<I>/mA
-0.122356	-0.00720824
-0.0723791	0.0523795
-0.132317	-0.0198624
-0.082363	0.0519977
-0.142328	-0.0218479
-0.0923928	0.0428338
-0.152339	-0.0258953
-0.102281	0.0386337
-0.162445	-0.025208
-0.11233	0.0426047
-0.172387	-0.0300191
-0.122352	0.0384046
-0.182405	-0.0258953
-0.132374	0.043292
-0.192438	-0.0334555
-0.142332	0.0456593
-0.202388	-0.0307063
-0.152358	0.042452
-0.212452	-0.0352119
-0.162391	0.0433684
-0.222451	-0.0402521
-0.172467	0.0425283
-0.232409	-0.0422376
-0.18239	0.0412301
-0.242374	-0.0436885
-0.192397	0.041001
-0.252415	-0.0394884
-0.202411	0.0467285
-0.26246	-0.0430776
-0.212391	0.0435975
-0.272417	-0.047965
-0.222432	0.0422229
-0.282378	-0.0494923
-0.232401	0.0429102
-0.292396	-0.0569761
-0.242389	0.0497831
-0.302384	-0.0566707
-0.252407	0.0482558
-0.312372	-0.0568234
-0.262391	0.050394
-0.322367	-0.0650709
-0.272394	0.0471103
-0.332363	-0.0687365
-0.282386	0.0451248
-0.342309	-0.0747694
-0.292389	0.0482558
-0.352365	-0.0785113
-0.302399	0.0502413
-0.362337	-0.0822532
-0.312349	0.0510813
-0.372356	-0.093708
-0.322379	0.0542123
-0.382355	-0.0972972
-0.332336	0.0494013
-0.392392	-0.114098
-0.342347	0.0644453
-0.402354	-0.136931
-0.352312	0.0681108
-0.412322	-0.171219
-0.362318	0.0759001
-0.422325	-0.212915
-0.372337	0.079413
-0.432321	-0.279429
-0.382374	0.100872
-0.44237	-0.365723
-0.392358	0.128211
-0.452315	-0.480653
-0.402365	0.163186
-0.462353	-0.624908
-0.412334	0.231075
-0.472291	-0.80368
-0.422302	0.322485
-0.482336	-1.00887
-0.432325	0.456812
-0.492347	-1.23308
-0.442278	0.629475
-0.502365	-1.48647
-0.452338	0.832913
-0.512318	-1.73
-0.462349	1.04216
-0.522348	-1.96299
-0.472302	1.25896
-0.532301	-2.18132
-0.482313	1.45285
-0.542308	-2.36162
-0.492308	1.61497
-0.552292	-2.5103
-0.502323	1.75175
-0.562307	-2.61034
-0.512356	1.84308
-0.572337	-2.64822
-0.522298	1.89951
-0.582374	-2.6447
-0.532309	1.91952
-0.592365	-2.57536
-0.542335	1.88821
-0.60243	-2.4392
-0.552319	1.82284
-0.612402	-2.2696
-0.562314	1.72441
-0.622401	-2.0518
-0.572298	1.60192
-0.632401	-1.81766
-0.582427	1.44781
-0.642392	-1.58078
-0.592404	1.28813
-0.652395	-1.36252
-0.602369	1.1244
-0.662375	-1.17352
-0.612364	0.96747
-0.672394	-1.01766
-0.622344	0.821993
-0.682332	-0.895853
-0.632347	0.687513
-0.692449	-0.80956
-0.642377	0.584266
-0.702368	-0.738158
-0.652361	0.492322
-0.712337	-0.690811
-0.662417	0.422295
-0.722313	-0.657134
-0.672352	0.374108
-0.732339	-0.639112
-0.682355	0.32554
-0.742327	-0.621471
-0.692354	0.297132
-0.752342	-0.615438
-0.702315	0.272389
-0.762349	-0.609406
-0.712372	0.25681
-0.772348	-0.6091
-0.722332	0.24925
-0.782324	-0.599096
-0.732359	0.233748
-0.792304	-0.601311
-0.742308	0.231228
-0.802338	-0.601769
-0.752346	0.220842
-0.812268	-0.603373
-0.762356	0.218246
-0.822336	-0.595812
-0.772374	0.217635
-0.832324	-0.586878
-0.782366	0.202438
-0.842369	-0.582601
-0.792335	0.199536
-0.852292	-0.569084
-0.802342	0.196787
-0.862314	-0.560761
-0.812303	0.187547
-0.872367	-0.541975
-0.822344	0.176016
-0.882381	-0.527389
-0.832297	0.169906
-0.892319	-0.516927
-0.842319	0.161812
-0.902353	-0.49585
-0.852345	0.148218
-0.912318	-0.478362
-0.862314	0.139436
-0.922267	-0.464998
-0.872355	0.13684
-0.932248	-0.44415
-0.882324	0.12424
-0.942312	-0.434528
-0.892319	0.11897
-0.952292	-0.430175
-0.902322	0.109883
-0.962253	-0.408335
-0.91231	0.10553
-0.972317	-0.400164
-0.922317	0.108356
-0.98232	-0.407495
-0.932312	0.10301
-0.992384	-0.397414
-0.942354	0.107897
-1.0024	-0.402073
-0.952303	0.108661
-1.01237	-0.400469
-0.96228	0.112479
-1.02237	-0.3994
-0.97229	0.110723
-1.03235	-0.407113
-0.982309	0.120727
-1.0424	-0.404669
-0.992449	0.110494
-1.05239	-0.409786
-1.00243	0.119734
-1.06239	-0.414749
-1.0124	0.120269
-1.0724	-0.427426
-1.02238	0.119887
-1.08241	-0.433459
-1.03237	0.127447
-1.09241	-0.437965
-1.04237	0.132869
-1.10239	-0.461562
-1.05242	0.139742
-1.11236	-0.475689
-1.06235	0.14356
-1.12237	-0.489206
-1.0724	0.141269