File: VFSWV_data_prep/Example_data/CoPc_VFSWV_txt_data/CoPc_CNT_VFSWV_scans_76_75_C02.txt
Ewe/V	<I>/mA
-0.122326	0.0232998
-0.0723602	0.0285106
-0.132348	0.0283377
-0.0823366	0.0295654
-0.14232	0.0266173
-0.0923282	0.0239416
-0.152323	0.0211313
-0.10235	0.0209613
-0.162361	0.0177179
-0.112346	0.0215808
-0.172242	0.0160513
-0.122337	0.0203317
-0.182348	0.0235796
-0.132298	0.0220875
-0.192305	0.0297882
-0.142309	0.0244207
-0.20235	0.0182444
-0.152316	0.0180041
-0.21241	0.0149018
-0.16238	0.0187952
-0.222417	0.0202797
-0.172341	0.0255865
-0.232413	0.0214563
-0.182317	0.0223189
-0.242362	0.0224569
-0.192282	0.0229943
-0.25235	0.0231789
-0.202278	0.0228168
-0.262403	0.0222247
-0.212327	0.0244498
-0.272383	0.0229388
-0.222371	0.0290469
-0.282333	0.0239054
-0.232336	0.0300861
-0.292355	0.0292843
-0.242359	0.0282469
-0.302373	0.0237768
-0.252396	0.0259259
-0.312368	0.0251171
-0.26233	0.0266485
-0.322364	0.0229633
-0.272379	0.0174765
-0.332317	0.0179125
-0.282371	0.017981
-0.342335	0.020202
-0.292366	0.0182034
-0.352346	0.0117052
-0.302369	0.0098422
-0.362345	0.0150797
-0.312368	0.0129067
-0.372371	0.0143753
-0.322364	0.0160909
-0.382302	0.0144165
-0.332283	0.0171534
-0.392301	0.0186897
-0.34237	0.0224451
-0.402358	0.0181326
-0.352312	0.0197685
-0.412334	0.0211949
-0.362349	0.0264669
-0.422348	0.0178149
-0.372383	0.017947
-0.432306	0.0170067
-0.382351	0.0143604
-0.442297	0.0174924
-0.392335	0.018028
-0.452365	0.0120846
-0.402274	0.0145284
-0.462342	0.012196
-0.412326	0.0164698
-0.472345	0.0151082
-0.422303	0.0107932
-0.482321	0.0114123
-0.432367	0.0124122
-0.492297	0.0144384
-0.442366	0.0124855
-0.502319	0.0163776
-0.452319	0.0142954
-0.512326	0.00738457
-0.462326	0.0146471
-0.522283	0.0122037
-0.472314	0.0128101
-0.532328	0.0147148
-0.482313	0.0150272
-0.542286	0.0153215
-0.492347	0.0146047
-0.5523	0.0106851
-0.502342	0.0123109
-0.562288	0.0129639
-0.512341	0.0120585
-0.572295	0.00795421
-0.522283	0.00898062
-0.582218	0.00871675
-0.532275	0.0104989
-0.592312	0.00646742
-0.542297	0.00907687
-0.602273	0.00725716
-0.552285	0.0108451
-0.612265	0.0092144
-0.562265	0.0124243
-0.622291	0.0132545
-0.572291	0.0131852
-0.632412	0.0116601
-0.582317	0.015532
-0.642404	0.0173172
-0.592301	0.0162109
-0.65238	0.0158815
-0.602334	0.0153042
-0.662368	0.011852
-0.61233	0.015528
-0.672398	0.0176395
-0.622283	0.0186577
-0.682393	0.0160993
-0.632435	0.0204894
-0.692343	0.0178741
-0.642396	0.0217335
-0.702334	0.0195656
-0.652357	0.0212195
-0.712391	0.0155041
-0.662387	0.0217708
-0.722375	0.0190047
-0.672402	0.0151189
-0.732401	0.0134654
-0.68242	0.0154405
-0.742308	0.0179368
-0.692366	0.0192141
-0.75233	0.0135856
-0.702407	0.00995838
-0.762345	0.0060863
-0.712379	0.00837819
-0.772379	0.0064904
-0.722359	0.0127055
-0.782309	0.00665233
-0.732366	0.0113493
-0.792331	0.0124515
-0.74235	0.0215046
-0.802319	0.0257147
-0.752357	0.0236279
-0.812356	0.0250911
-0.762376	0.0250563
-0.822325	0.0186722
-0.772402	0.0154404
-0.832374	0.014448
-0.782351	0.0191133
-0.842335	0.0121275
-0.792346	0.01449
-0.852384	0.0144988
-0.802414	0.0146255
-0.862352	0.0131536
-0.812349	0.0193264
-0.872371	0.0119341
-0.822329	0.0131647
-0.882347	0.00949057
-0.832359	0.0115539
-0.892358	0.0139937
-0.842369	0.0148931
-0.902342	0.0145586
-0.852372	0.0177356
-0.912295	0.00866672
-0.862364	0.00993636
-0.922333	0.00470963
-0.872329	0.00727826
-0.932339	0.00583082
-0.882309	0.00902267
-0.942327	0.00650296
-0.892335	0.0118064
-0.952304	0.0071298
-0.902353	0.00898525
-0.962326	0.0050578
-0.912349	0.0118566
-0.97231	0.0077093
-0.922306	0.0113804
-0.982244	0.0128804
-0.932339	0.015231
-0.9924	0.0153642
-0.942331	0.0231474
-1.0023	0.0255515
-0.952326	0.0326615
-1.01232	0.0194995
-0.962356	0.0188445
-1.02231	0.0171373
-0.972359	0.0207466
-1.03229	0.0178869
-0.98232	0.0185899
-1.04231	0.0154176
-0.99232	0.0198589
-1.0524	0.0172832
-1.00232	0.021139
-1.06243	0.0143433
-1.0123	0.0225529
-1.07232	0.0250744
-1.02231	0.0245638
-1.08244	0.0250486
-1.03229	0.0258337
-1.09239	0.0307089
-1.04234	0.0302097
-1.10239	0.0241474
-1.05239	0.0265457
-1.11238	0.0252089
-1.06236	0.0253265
-1.12239	0.0163525
-1.07237	0.0197544