File: VFSWV_data_prep/Example_data/CoPc_VFSWV_txt_data/CoPc_CNT_VFSWV_scans_46_45_C02.txt
Ewe/V	<I>/mA
-0.122379	0.0102795
-0.0723564	0.0312956
-0.132367	0.00640738
-0.0823938	0.0320593
-0.14237	0.00876777
-0.0923548	0.0264013
-0.152354	0.0052966
-0.102362	0.0297336
-0.162361	0.00470651
-0.112395	0.0245963
-0.17233	-0.00490863
-0.122375	0.0254988
-0.182375	0.00543545
-0.132378	0.0233814
-0.192359	0.00724046
-0.142351	0.0234855
-0.202388	0.00106178
-0.152385	0.0276856
-0.212452	-0.00115977
-0.162395	0.0270608
-0.222463	0.00227669
-0.172333	0.0322329
-0.232451	-0.00313833
-0.182359	0.0249434
-0.242427	0.000541104
-0.192359	0.0302196
-0.252465	0.000853509
-0.202426	0.0300113
-0.262429	-1.42825e-05
-0.212475	0.026436
-0.272429	-0.00220112
-0.222413	0.0277551
-0.282447	-0.00556815
-0.232439	0.0282063
-0.292427	-0.00598469
-0.242423	0.0281022
-0.302445	-0.000639093
-0.25243	0.0283799
-0.312471	-0.00709546
-0.262475	0.02536
-0.322402	-0.0102195
-0.272467	0.030289
-0.332428	-0.0121634
-0.282409	0.0321982
-0.342412	-0.0107055
-0.292412	0.0294212
-0.352403	-0.0117121
-0.30243	0.0268873
-0.362395	-0.00910874
-0.312429	0.0286576
-0.37244	-0.0121287
-0.322421	0.0294559
-0.382374	-0.0150444
-0.332432	0.0299766
-0.392389	-0.0220215
-0.34245	0.0368842
-0.4024	-0.0156345
-0.352346	0.0342114
-0.412368	-0.0215702
-0.362414	0.0327535
-0.422417	-0.0287208
-0.37244	0.0323023
-0.432409	-0.0266729
-0.382424	0.0300113
-0.442324	-0.036288
-0.392389	0.0334131
-0.452361	-0.040384
-0.402346	0.0391405
-0.462418	-0.0512487
-0.412414	0.0370231
-0.472375	-0.0633631
-0.422352	0.0436877
-0.482374	-0.077942
-0.432336	0.0490333
-0.492393	-0.10401
-0.4424	0.0482002
-0.502373	-0.134106
-0.452411	0.0582666
-0.512383	-0.16184
-0.462406	0.0708322
-0.522348	-0.199884
-0.472387	0.0847863
-0.532359	-0.228035
-0.482367	0.109709
-0.542339	-0.266635
-0.492331	0.1313
-0.552384	-0.286281
-0.502346	0.164068
-0.562338	-0.301589
-0.512341	0.191004
-0.572352	-0.307039
-0.522371	0.215649
-0.582325	-0.296278
-0.532363	0.227208
-0.592316	-0.278055
-0.542354	0.228007
-0.6023	-0.251431
-0.552334	0.224709
-0.612425	-0.235984
-0.562303	0.208117
-0.622383	-0.210471
-0.572329	0.188123
-0.632401	-0.196725
-0.58234	0.167435
-0.642396	-0.189852
-0.59232	0.140499
-0.652392	-0.17687
-0.602292	0.126336
-0.662395	-0.174788
-0.612414	0.10964
-0.672394	-0.172809
-0.622451	0.0955122
-0.68242	-0.164409
-0.632489	0.0872509
-0.69245	-0.161424
-0.642419	0.0793019
-0.702434	-0.160556
-0.652415	0.0695132
-0.71241	-0.160105
-0.662349	0.0706934
-0.722375	-0.157952
-0.672428	0.0664586
-0.732321	-0.159306
-0.682397	0.064966
-0.7424	-0.162638
-0.692423	0.0653825
-0.752315	-0.159028
-0.702384	0.0629527
-0.762398	-0.163402
-0.712375	0.0622237
-0.772375	-0.163402
-0.72239	0.0567393
-0.782374	-0.163819
-0.732412	0.062675
-0.792339	-0.160591
-0.742438	0.0547607
-0.802338	-0.160625
-0.75238	0.0544136
-0.812375	-0.156147
-0.762376	0.059308
-0.822382	-0.16243
-0.772378	0.05365
-0.832401	-0.159966
-0.782355	0.0525045
-0.842404	-0.157154
-0.792396	0.0487556
-0.852369	-0.151843
-0.802353	0.0522962
-0.862318	-0.150142
-0.812364	0.0503871
-0.872394	-0.149934
-0.822367	0.0394529
-0.882366	-0.141811
-0.832362	0.0361553
-0.892369	-0.139243
-0.842385	0.0334478
-0.902346	-0.135008
-0.852349	0.0426464
-0.912364	-0.130947
-0.862318	0.0335866
-0.922352	-0.120221
-0.872413	0.0304279
-0.932358	-0.124699
-0.882393	0.031018
-0.942331	-0.111855
-0.892362	0.0291782
-0.952323	-0.106926
-0.902338	0.021264
-0.962326	-0.111612
-0.912326	0.0229301
-0.97231	-0.104878
-0.922333	0.0213334
-0.982336	-0.112168
-0.932271	0.0206392
-0.992354	-0.104844
-0.942316	0.0226872
-1.00233	-0.102796
-0.952307	0.0310874
-1.01237	-0.110085
-0.962425	0.0247699
-1.02247	-0.108384
-0.972329	0.0249781
-1.03244	-0.107551
-0.982339	0.0273385
-1.04241	-0.109183
-0.9923	0.0329271
-1.05239	-0.11189
-1.00232	0.0250823
-1.06236	-0.103039
-1.01241	0.0275121
-1.07241	-0.115604
-1.02243	0.0274427
-1.08237	-0.11852
-1.03242	0.0286228
-1.09245	-0.122477
-1.04246	0.0318857
-1.10237	-0.124109
-1.05244	0.0248393
-1.11241	-0.129697
-1.06245	0.0375437
-1.12239	-0.136049
-1.07245	0.026193