File: VFSWV_data_prep/Example_data/CoPc_VFSWV_txt_data/CoPc_CNT_VFSWV_scans_17_16_C02.txt
Ewe/V	<I>/mA
-0.122388	-0.026796
-0.0723843	0.155702
-0.132399	-0.124942
-0.0824485	0.139538
-0.142432	-0.136524
-0.0924706	0.142466
-0.152401	-0.150397
-0.102386	0.125792
-0.162389	-0.151033
-0.112408	0.138647
-0.172388	-0.150651
-0.122438	0.135211
-0.182334	-0.153197
-0.13241	0.142211
-0.192337	-0.165034
-0.142451	0.140684
-0.202382	-0.172925
-0.152386	0.143993
-0.212351	-0.170379
-0.162358	0.148702
-0.222357	-0.183361
-0.172373	0.149466
-0.23238	-0.188707
-0.182399	0.152266
-0.242383	-0.197744
-0.192413	0.15392
-0.252374	-0.195834
-0.20239	0.161175
-0.262373	-0.210344
-0.212351	0.152266
-0.272373	-0.221162
-0.222335	0.156593
-0.282376	-0.224344
-0.232399	0.162193
-0.292367	-0.22829
-0.242371	0.160666
-0.302351	-0.244072
-0.252401	0.166266
-0.3124	-0.251327
-0.262392	0.168939
-0.322415	-0.272836
-0.272392	0.178103
-0.332353	-0.289637
-0.28238	0.180903
-0.342329	-0.31051
-0.292379	0.199358
-0.352374	-0.342838
-0.30237	0.209413
-0.362389	-0.385985
-0.312331	0.209795
-0.372327	-0.440586
-0.322384	0.239323
-0.382356	-0.498243
-0.332357	0.259432
-0.39231	-0.580336
-0.34234	0.298761
-0.402386	-0.68992
-0.352336	0.354635
-0.412362	-0.832215
-0.362362	0.413946
-0.422331	-1.02122
-0.372342	0.50393
-0.432433	-1.24128
-0.382307	0.643424
-0.442447	-1.49367
-0.392344	0.810029
-0.452427	-1.79366
-0.402351	1.03073
-0.4624	-2.14112
-0.412324	1.28171
-0.472449	-2.50221
-0.422327	1.56007
-0.482448	-2.87462
-0.432437	1.85637
-0.492401	-3.2301
-0.442417	2.14681
-0.50242	-3.60314
-0.452385	2.40442
-0.512377	-3.9445
-0.462427	2.61557
-0.522437	-4.25518
-0.472346	2.7977
-0.53241	-4.5222
-0.482437	2.92994
-0.542394	-4.76034
-0.492413	3.01572
-0.552397	-4.95787
-0.502435	3.08458
-0.562396	-5.09253
-0.512366	3.13116
-0.572441	-5.18239
-0.522403	3.13842
-0.582364	-5.22159
-0.532372	3.14287
-0.592417	-5.18786
-0.542401	3.11335
-0.602359	-5.10755
-0.55242	3.0618
-0.612331	-4.95202
-0.562404	2.99701
-0.622395	-4.75257
-0.572372	2.89061
-0.632387	-4.48784
-0.582375	2.78294
-0.642333	-4.1708
-0.592367	2.63326
-0.652366	-3.85362
-0.602389	2.46755
-0.662335	-3.51265
-0.612407	2.27803
-0.67241	-3.1811
-0.622361	2.07744
-0.682337	-2.87245
-0.632345	1.8906
-0.692378	-2.6011
-0.642287	1.70134
-0.702343	-2.36793
-0.652358	1.52087
-0.712331	-2.1844
-0.662373	1.35884
-0.722319	-2.02721
-0.672357	1.21579
-0.732345	-1.91164
-0.682326	1.10085
-0.742309	-1.82662
-0.692378	1.00858
-0.752328	-1.7584
-0.702381	0.936414
-0.762297	-1.7038
-0.712308	0.874303
-0.772338	-1.66969
-0.722334	0.820338
-0.782245	-1.65353
-0.732322	0.787628
-0.792302	-1.64564
-0.742321	0.751736
-0.80229	-1.62324
-0.752335	0.735954
-0.812293	-1.61382
-0.762354	0.721317
-0.822322	-1.59944
-0.772296	0.700317
-0.832348	-1.59867
-0.782329	0.675753
-0.842447	-1.57996
-0.792294	0.667098
-0.852393	-1.56062
-0.802309	0.65997
-0.862422	-1.54394
-0.812316	0.640115
-0.872425	-1.52256
-0.822342	0.623315
-0.882425	-1.48107
-0.832394	0.603842
-0.892412	-1.45027
-0.842409	0.589968
-0.902381	-1.4187
-0.852442	0.562477
-0.912392	-1.39058
-0.862445	0.548349
-0.922387	-1.34437
-0.872403	0.537276
-0.932402	-1.32108
-0.88236	0.51933
-0.942382	-1.29805
-0.892412	0.505457
-0.95237	-1.27692
-0.902377	0.493111
-0.962361	-1.26419
-0.912369	0.498839
-0.97238	-1.24243
-0.922364	0.486238
-0.982398	-1.24663
-0.932394	0.489039
-0.992378	-1.23224
-0.942355	0.494766
-1.00242	-1.23924
-0.952358	0.508257
-1.01238	-1.23237
-0.962346	0.511312
-1.02238	-1.24828
-0.972376	0.526712
-1.0324	-1.24688
-0.98239	0.534985
-1.04236	-1.25961
-0.992367	0.548222
-1.05238	-1.26801
-1.00238	0.553313
-1.06238	-1.28443
-1.01236	0.558531
-1.07237	-1.30797
-1.02239	0.564259
-1.08236	-1.32401
-1.03238	0.591496
-1.09233	-1.35112
-1.04234	0.597096
-1.1024	-1.39287
-1.05234	0.606896
-1.11233	-1.42061
-1.06233	0.622551
-1.1223	-1.46325
-1.07236	0.639479