File: VFSWV_data_prep/Example_data/CoPc_VFSWV_txt_data/CoPc_CNT_VFSWV_scans_20_19_C02.txt
Ewe/V	<I>/mA
-0.122368	-0.0240851
-0.0723447	0.115706
-0.132329	-0.0682401
-0.0823096	0.111792
-0.142332	-0.0822723
-0.0923126	0.100337
-0.152274	-0.0876179
-0.102312	0.0992871
-0.162395	-0.0894316
-0.112334	0.0982371
-0.172421	-0.100695
-0.122329	0.104442
-0.182359	-0.0985
-0.13234	0.102151
-0.192419	-0.102509
-0.142328	0.0965189
-0.202346	-0.108332
-0.152495	0.102342
-0.212364	-0.114632
-0.162437	0.102724
-0.22236	-0.122173
-0.172398	0.109787
-0.232374	-0.121792
-0.182409	0.108165
-0.242358	-0.125228
-0.192385	0.114942
-0.252361	-0.131433
-0.202396	0.111124
-0.262326	-0.136396
-0.212418	0.11141
-0.272379	-0.143365
-0.222429	0.112269
-0.282325	-0.149665
-0.232386	0.113606
-0.292354	-0.159688
-0.242354	0.122197
-0.302327	-0.164652
-0.252338	0.116279
-0.312334	-0.182884
-0.262383	0.118188
-0.322406	-0.189566
-0.272314	0.124965
-0.332367	-0.20083
-0.282336	0.130406
-0.342331	-0.220208
-0.292328	0.137184
-0.352323	-0.245886
-0.302361	0.14167
-0.362345	-0.271946
-0.312399	0.151216
-0.372379	-0.310128
-0.322325	0.15723
-0.382317	-0.355948
-0.332348	0.183194
-0.392358	-0.420954
-0.342324	0.205435
-0.40235	-0.500947
-0.352365	0.239991
-0.412349	-0.624087
-0.362345	0.281801
-0.422356	-0.757154
-0.372409	0.353299
-0.432313	-0.952077
-0.382313	0.442265
-0.442308	-1.17258
-0.392335	0.572182
-0.452331	-1.43414
-0.402338	0.7567
-0.46233	-1.74208
-0.41233	0.97587
-0.472337	-2.06501
-0.422318	1.24086
-0.482279	-2.4246
-0.43237	1.52962
-0.492289	-2.77789
-0.442316	1.82028
-0.502323	-3.12544
-0.4523	2.09176
-0.512337	-3.4626
-0.462364	2.32878
-0.522302	-3.77121
-0.472291	2.5343
-0.532343	-4.04956
-0.482366	2.69878
-0.542285	-4.27265
-0.492324	2.82268
-0.552323	-4.45402
-0.502319	2.91785
-0.562284	-4.59004
-0.512292	2.96959
-0.572409	-4.68913
-0.522276	2.9987
-0.582397	-4.70421
-0.532305	2.9988
-0.592388	-4.66784
-0.542339	2.9671
-0.60243	-4.55787
-0.5523	2.91479
-0.612379	-4.39579
-0.562269	2.82363
-0.622348	-4.17776
-0.572455	2.70431
-0.632393	-3.90218
-0.582393	2.57105
-0.642404	-3.59691
-0.592365	2.39961
-0.652342	-3.26768
-0.602399	2.21872
-0.662349	-2.93997
-0.612372	2.01702
-0.672356	-2.63184
-0.622321	1.81494
-0.682385	-2.3531
-0.632351	1.6266
-0.692392	-2.10835
-0.642369	1.43521
-0.70233	-1.91056
-0.652346	1.27169
-0.712383	-1.75086
-0.662349	1.12306
-0.722401	-1.62305
-0.672386	0.998111
-0.732324	-1.53246
-0.682339	0.894922
-0.742369	-1.47175
-0.69235	0.811874
-0.752342	-1.4097
-0.70233	0.75145
-0.762341	-1.38603
-0.712375	0.695321
-0.772332	-1.35281
-0.72239	0.65437
-0.782347	-1.34527
-0.732294	0.62726
-0.79235	-1.33161
-0.742342	0.603301
-0.802353	-1.32493
-0.752334	0.580582
-0.812295	-1.31434
-0.76228	0.565977
-0.822325	-1.31367
-0.772287	0.554904
-0.83232	-1.29639
-0.782343	0.543354
-0.842308	-1.29477
-0.792308	0.527317
-0.85228	-1.26642
-0.802284	0.51548
-0.862345	-1.24819
-0.812337	0.496866
-0.872306	-1.22461
-0.822348	0.485507
-0.882293	-1.1891
-0.832335	0.473002
-0.892319	-1.17086
-0.842327	0.456392
-0.902296	-1.13545
-0.852311	0.431573
-0.912261	-1.10319
-0.862322	0.422314
-0.922279	-1.07035
-0.872336	0.408568
-0.93229	-1.04534
-0.882309	0.397018
-0.942369	-1.02014
-0.892239	0.379358
-0.952284	-1.00467
-0.902315	0.365517
-0.962345	-0.995797
-0.912264	0.365612
-0.972294	-0.984056
-0.922382	0.363512
-0.98237	-0.977851
-0.932293	0.36714
-0.992449	-0.971742
-0.942266	0.369526
-1.00235	-0.975464
-0.952246	0.375922
-1.01236	-0.970501
-0.962272	0.377449
-1.02236	-0.977183
-0.972275	0.387663
-1.03238	-0.981383
-0.982389	0.38709
-1.04242	-0.992647
-0.992361	0.398354
-1.05237	-1.00821
-1.00239	0.416205
-1.06242	-1.01642
-1.01232	0.413627
-1.07241	-1.03551
-1.02233	0.42871
-1.08237	-1.05517
-1.03237	0.434914
-1.09237	-1.07016
-1.04238	0.443983
-1.10234	-1.1091
-1.05237	0.452956
-1.11233	-1.12925
-1.06235	0.480352
-1.12232	-1.16476
-1.07238	0.491711