File: VFSWV_data_prep/Example_data/CoPc_VFSWV_txt_data/CoPc_CNT_VFSWV_scans_48_47_C02.txt
Ewe/V	<I>/mA
-0.122433	0.0144414
-0.0724099	0.039181
-0.132405	0.0160485
-0.0823976	0.0320853
-0.142408	0.0163667
-0.0924274	0.0352354
-0.152377	0.0147758
-0.102369	0.0328808
-0.162357	0.0141076
-0.112399	0.0313853
-0.172364	0.0114666
-0.12241	0.0304307
-0.182371	0.0166213
-0.13234	0.0264852
-0.192389	0.0111166
-0.142362	0.0345036
-0.202465	0.00997111
-0.152358	0.0363491
-0.212449	0.00720285
-0.162365	0.0329763
-0.222505	0.0114348
-0.172394	0.0327535
-0.23247	0.0113393
-0.182398	0.0378446
-0.242431	0.00675739
-0.192362	0.0338354
-0.252434	0.00405277
-0.202457	0.0313853
-0.262452	0.00631192
-0.212464	0.0306535
-0.27244	0.00440278
-0.222452	0.0349809
-0.282436	0.00968474
-0.232436	0.0299216
-0.29245	0.00036176
-0.242412	0.0352036
-0.30243	0.00663011
-0.252434	0.0285534
-0.312429	0.00265273
-0.262433	0.03514
-0.322474	0.00313002
-0.272459	0.0343763
-0.332401	0.000584494
-0.282462	0.0301762
-0.342408	0.00201635
-0.292412	0.0330717
-0.352415	-0.0069248
-0.302472	0.0339308
-0.36241	-0.000115525
-0.312422	0.0302398
-0.372452	-0.00472929
-0.322432	0.0378764
-0.382401	-0.000815544
-0.332409	0.0353945
-0.3924	-0.0047611
-0.342481	0.0335172
-0.402358	-0.0113795
-0.352442	0.0370809
-0.412437	-0.00845211
-0.36241	0.0319581
-0.422367	-0.0148159
-0.372406	0.0366991
-0.432367	-0.0196206
-0.38242	0.0366355
-0.442423	-0.021307
-0.392431	0.0404219
-0.45238	-0.0306936
-0.402426	0.0413129
-0.462422	-0.026589
-0.412437	0.0409628
-0.472448	-0.0405575
-0.422402	0.0439538
-0.482332	-0.0485441
-0.432413	0.0489494
-0.492412	-0.0596489
-0.442412	0.0485358
-0.502434	-0.0801086
-0.452403	0.0483767
-0.512395	-0.102732
-0.462395	0.0624407
-0.522329	-0.123701
-0.472383	0.0651453
-0.532347	-0.143651
-0.482397	0.0787002
-0.54232	-0.171461
-0.492427	0.0979826
-0.552361	-0.182025
-0.502392	0.116724
-0.562383	-0.193575
-0.512376	0.13222
-0.572367	-0.196184
-0.522364	0.144407
-0.582313	-0.182502
-0.532424	0.152711
-0.5924	-0.179575
-0.542339	0.158916
-0.602357	-0.170888
-0.552399	0.158757
-0.612475	-0.156029
-0.562315	0.141893
-0.622432	-0.148488
-0.572348	0.134193
-0.632447	-0.141328
-0.582328	0.12191
-0.642484	-0.138433
-0.592381	0.106001
-0.652384	-0.132324
-0.60235	0.0959143
-0.662498	-0.133501
-0.612452	0.0864641
-0.672428	-0.132674
-0.622444	0.0755183
-0.682435	-0.124496
-0.632462	0.0735137
-0.692385	-0.121314
-0.642473	0.0708409
-0.702403	-0.125578
-0.652426	0.0634907
-0.71244	-0.127105
-0.662425	0.0693454
-0.722401	-0.122682
-0.672478	0.0626952
-0.732416	-0.12071
-0.682416	0.0616134
-0.742396	-0.129524
-0.692457	0.054645
-0.752395	-0.127742
-0.702422	0.0603406
-0.762391	-0.126883
-0.712429	0.0561087
-0.772359	-0.124178
-0.722405	0.0527041
-0.782408	-0.125801
-0.732397	0.0617089
-0.792381	-0.127901
-0.742373	0.0592906
-0.802403	-0.131528
-0.752422	0.0569042
-0.812356	-0.135537
-0.76244	0.0550587
-0.822352	-0.123828
-0.772413	0.0546769
-0.832378	-0.129174
-0.782424	0.0524495
-0.842419	-0.122301
-0.792404	0.0501267
-0.852414	-0.119946
-0.80243	0.0548678
-0.862402	-0.112405
-0.812314	0.0537223
-0.872432	-0.114728
-0.822417	0.0443993
-0.882412	-0.106455
-0.832389	0.0493949
-0.892346	-0.0991364
-0.842335	0.0388946
-0.902365	-0.0979591
-0.852388	0.0450039
-0.912322	-0.0924544
-0.862375	0.0406447
-0.922356	-0.0872997
-0.872386	0.0335808
-0.93237	-0.0853587
-0.882404	0.0327854
-0.942365	-0.083736
-0.892365	0.0324035
-0.952334	-0.0853587
-0.902357	0.0369855
-0.962337	-0.0778813
-0.912333	0.0378128
-0.972329	-0.0782631
-0.92234	0.0295398
-0.982328	-0.0772131
-0.93237	0.0301762
-0.992335	-0.0783267
-0.942358	0.0305262
-1.0023	-0.0738084
-0.952311	0.0366673
-1.01237	-0.0772131
-0.962322	0.0339945
-1.02243	-0.0784858
-0.97231	0.0301444
-1.03239	-0.0753039
-0.982324	0.0330081
-1.04237	-0.0800131
-0.992335	0.0327217
-1.05242	-0.0793449
-1.00233	0.0350445
-1.06239	-0.0842451
-1.01245	0.0346627
-1.07236	-0.0916907
-1.02246	0.0324672
-1.08236	-0.0864724
-1.03244	0.0340263
-1.09241	-0.0975454
-1.04243	0.0394674
-1.10241	-0.0878406
-1.05241	0.0366036
-1.11238	-0.0907361
-1.06242	0.038831
-1.12246	-0.101046
-1.07238	0.044972