File: VFSWV_data_prep/Example_data/CoPc_VFSWV_txt_data/CoPc_CNT_VFSWV_scans_49_48_C02.txt
Ewe/V	<I>/mA
-0.122375	-0.00117535
-0.0724136	0.0242652
-0.132348	0.00496818
-0.0823976	0.0201238
-0.142347	-0.00111171
-0.0923548	0.0185084
-0.152377	0.00587869
-0.102358	0.0231197
-0.162369	-0.00492999
-0.112399	0.0143964
-0.172364	-0.00199285
-0.12241	0.0137502
-0.182367	-0.0066629
-0.132382	0.0133978
-0.192343	-0.00240405
-0.142362	0.0169223
-0.202495	0.00114989
-0.15235	0.0152775
-0.21246	-0.00492999
-0.162384	0.0200063
-0.222505	-0.00384325
-0.17236	0.0128103
-0.232451	-0.00816085
-0.182329	0.0187727
-0.242431	-0.00278588
-0.192313	0.0136327
-0.25243	-0.00957067
-0.202461	0.0165111
-0.262468	-0.00936507
-0.212491	0.0133097
-0.272455	-0.00945319
-0.222482	0.0140146
-0.282462	-0.0105693
-0.232527	0.0131334
-0.292412	-0.0099525
-0.242439	0.0245589
-0.302434	-0.0132127
-0.252415	0.0124285
-0.312391	-0.016796
-0.262422	0.00949138
-0.322436	-0.00910073
-0.272475	0.0200651
-0.332394	-0.0116267
-0.282401	0.0100201
-0.34242	-0.0118616
-0.292416	0.0138383
-0.352403	-0.0191751
-0.30243	0.0157181
-0.362391	-0.0175597
-0.312426	0.0182734
-0.372421	-0.012126
-0.322467	0.017921
-0.38239	-0.0158268
-0.33239	0.0207994
-0.392389	-0.0142701
-0.342442	0.0191546
-0.402377	-0.0205556
-0.352384	0.0191252
-0.412384	-0.02035
-0.362406	0.0181266
-0.422402	-0.0210255
-0.372348	0.0214162
-0.432386	-0.0259012
-0.382405	0.0219449
-0.442408	-0.0267823
-0.392377	0.0254988
-0.45243	-0.0332147
-0.40238	0.0222973
-0.462361	-0.0395883
-0.412406	0.0276429
-0.472383	-0.0405869
-0.422371	0.0243239
-0.482393	-0.0533047
-0.432409	0.0266443
-0.492347	-0.0649358
-0.442381	0.0393915
-0.502354	-0.0722199
-0.452384	0.0410657
-0.51238	-0.0898428
-0.462395	0.0487022
-0.522341	-0.100945
-0.472341	0.0574549
-0.532363	-0.118627
-0.48234	0.0624187
-0.542354	-0.138658
-0.492366	0.0697028
-0.552388	-0.146853
-0.50238	0.0800709
-0.562307	-0.16333
-0.512338	0.10066
-0.572325	-0.16007
-0.522329	0.111645
-0.582298	-0.162302
-0.532317	0.111616
-0.592347	-0.155253
-0.542366	0.117108
-0.60235	-0.154959
-0.552373	0.118694
-0.612406	-0.142241
-0.56233	0.115816
-0.622428	-0.134311
-0.572352	0.103656
-0.632508	-0.134605
-0.582347	0.0941398
-0.64235	-0.133724
-0.59237	0.0891173
-0.652361	-0.120918
-0.602334	0.0807171
-0.662414	-0.120272
-0.612456	0.0653264
-0.672398	-0.12782
-0.622451	0.0644159
-0.682405	-0.128731
-0.632416	0.0556339
-0.692438	-0.121446
-0.642404	0.0541947
-0.702407	-0.125206
-0.652411	0.0489372
-0.712418	-0.124207
-0.662395	0.0485847
-0.722329	-0.122592
-0.672417	0.0526086
-0.732385	-0.121887
-0.682389	0.0482616
-0.742377	-0.123532
-0.692404	0.0466756
-0.75243	-0.121329
-0.702411	0.0475861
-0.76236	-0.121564
-0.712398	0.0476742
-0.772413	-0.123062
-0.722344	0.0449133
-0.782401	-0.12456
-0.73237	0.0421818
-0.792389	-0.121887
-0.742388	0.0483204
-0.802308	-0.117041
-0.752418	0.0474099
-0.81233	-0.127497
-0.762349	0.0418587
-0.822379	-0.120183
-0.772348	0.0416824
-0.832389	-0.120448
-0.78237	0.0397146
-0.842377	-0.118568
-0.792339	0.0393915
-0.852338	-0.115278
-0.802365	0.0407719
-0.862356	-0.115249
-0.812437	0.0358375
-0.872359	-0.109845
-0.822356	0.0373061
-0.882351	-0.106173
-0.832397	0.0314612
-0.892335	-0.106173
-0.842377	0.0286415
-0.902315	-0.0982724
-0.852357	0.0327242
-0.912387	-0.0955996
-0.862364	0.0276723
-0.92234	-0.091282
-0.872333	0.0253519
-0.932351	-0.0889616
-0.882351	0.019742
-0.942373	-0.0851727
-0.892339	0.023061
-0.95233	-0.0850258
-0.902342	0.0240302
-0.96236	-0.0824412
-0.912417	0.0203294
-0.972378	-0.078711
-0.922314	0.0211812
-0.982366	-0.0802089
-0.932366	0.0258806
-0.992342	-0.0802971
-0.942293	0.020535
-1.00231	-0.0807083
-0.952353	0.0252638
-1.01232	-0.0761263
-0.96236	0.0249701
-1.02246	-0.0786522
-0.972352	0.0257338
-1.03247	-0.0800621
-0.982343	0.0256457
-1.04244	-0.0810313
-0.992373	0.0237659
-1.05237	-0.0779473
-1.00235	0.0247351
-1.06241	-0.0829111
-1.01242	0.0249407
-1.07242	-0.077918
-1.02241	0.026145
-1.08238	-0.0848496
-1.03239	0.0310206
-1.09243	-0.0906652
-1.04245	0.0236484
-1.10239	-0.0932205
-1.05241	0.0269086
-1.11239	-0.0934261
-1.0624	0.0290821
-1.12234	-0.0942779
-1.07237	0.0282891