File: VFSWV_data_prep/Example_data/CoPc_VFSWV_txt_data/CoPc_CNT_VFSWV_scans_04_3_C02.txt
Ewe/V	<I>/mA
-0.122312	-1.46598
-0.0723612	3.13473
-0.132299	-3.52608
-0.0823681	2.76512
-0.142325	-3.64063
-0.092352	2.73572
-0.152317	-3.65323
-0.102347	2.73495
-0.162305	-3.68855
-0.112335	2.74622
-0.172289	-3.71566
-0.122331	2.74736
-0.182284	-3.74849
-0.132368	2.76149
-0.192333	-3.7756
-0.142283	2.76187
-0.202321	-3.8029
-0.152309	2.77791
-0.212289	-3.82104
-0.162293	2.78631
-0.222288	-3.84834
-0.172292	2.78822
-0.232322	-3.86438
-0.182265	2.79318
-0.242352	-3.87641
-0.192237	2.79375
-0.252305	-3.90943
-0.202305	2.79948
-0.262251	-3.91955
-0.212255	2.80139
-0.272403	-3.96423
-0.222239	2.80196
-0.282368	-3.98084
-0.232276	2.81208
-0.292398	-4.01291
-0.242287	2.82583
-0.302378	-4.05205
-0.252286	2.83117
-0.312419	-4.0866
-0.262278	2.84683
-0.32243	-4.14197
-0.272399	2.85523
-0.332337	-4.19943
-0.282345	2.88501
-0.342409	-4.26854
-0.292382	2.9167
-0.352374	-4.36324
-0.302347	2.95794
-0.362339	-4.47149
-0.312335	3.01732
-0.37233	-4.61925
-0.32238	3.07173
-0.382375	-4.76301
-0.332372	3.14466
-0.392302	-4.9482
-0.34234	3.22656
-0.402347	-5.16317
-0.352324	3.32259
-0.412327	-5.39188
-0.362346	3.41804
-0.422346	-5.66565
-0.372288	3.50224
-0.432326	-5.95145
-0.382337	3.58471
-0.442317	-6.25959
-0.392356	3.64084
-0.452316	-6.59273
-0.402374	3.67272
-0.462327	-6.93218
-0.412312	3.67158
-0.472326	-7.28442
-0.4223	3.62977
-0.48228	-7.64601
-0.432333	3.56963
-0.492317	-7.99882
-0.442321	3.45642
-0.50224	-8.37034
-0.452313	3.32641
-0.512335	-8.72677
-0.462293	3.16088
-0.522231	-9.09161
-0.472284	2.98658
-0.532284	-9.45015
-0.482345	2.78936
-0.542321	-9.79207
-0.49231	2.58356
-0.552313	-10.1088
-0.502278	2.37756
-0.562308	-10.4036
-0.512323	2.19352
-0.572238	-10.6756
-0.522303	2.01368
-0.582283	-10.8894
-0.532264	1.84987
-0.592275	-11.0752
-0.542294	1.71337
-0.602251	-11.1899
-0.552339	1.61734
-0.612369	-11.2739
-0.5623	1.57458
-0.622361	-11.2379
-0.572319	1.57362
-0.632356	-11.1361
-0.582264	1.6309
-0.642355	-10.9553
-0.592294	1.74449
-0.652316	-10.6915
-0.602316	1.87832
-0.662365	-10.3669
-0.612338	2.03754
-0.672353	-9.99139
-0.622403	2.20803
-0.682329	-9.60307
-0.632348	2.37203
-0.692336	-9.20349
-0.642351	2.49975
-0.702309	-8.83559
-0.652373	2.60322
-0.712315	-8.49806
-0.66235	2.65859
-0.722341	-8.19221
-0.672391	2.68417
-0.732318	-7.94135
-0.682364	2.68188
-0.742294	-7.72333
-0.692325	2.67081
-0.752293	-7.53967
-0.702347	2.63415
-0.762277	-7.40106
-0.712331	2.59253
-0.772292	-7.28842
-0.72238	2.5574
-0.782295	-7.19564
-0.732333	2.50643
-0.792302	-7.14008
-0.742313	2.47646
-0.802289	-7.09045
-0.752328	2.4356
-0.812361	-7.06792
-0.762304	2.3999
-0.822337	-7.0389
-0.772315	2.36573
-0.832321	-7.02439
-0.782291	2.33384
-0.842332	-7.01809
-0.792294	2.3138
-0.852286	-7.00243
-0.802328	2.2886
-0.862311	-6.99079
-0.8123	2.27141
-0.872295	-6.97532
-0.822307	2.2548
-0.882272	-6.95814
-0.83231	2.24659
-0.892332	-6.93352
-0.842321	2.23419
-0.90232	-6.90545
-0.852358	2.24049
-0.912327	-6.87777
-0.862323	2.24659
-0.922261	-6.84779
-0.872345	2.26053
-0.932272	-6.81228
-0.882302	2.27199
-0.942252	-6.78632
-0.892282	2.2865
-0.952324	-6.7678
-0.902224	2.31093
-0.962392	-6.74508
-0.912288	2.35141
-0.972368	-6.72599
-0.922261	2.36496
-0.982359	-6.72943
-0.932264	2.39131
-0.992393	-6.71625
-0.942259	2.42204
-1.00236	-6.70404
-0.952289	2.43579
-1.01237	-6.70289
-0.9623	2.46615
-1.02234	-6.70136
-0.972379	2.48772
-1.03232	-6.709
-0.982401	2.51311
-1.04233	-6.70976
-0.992382	2.53659
-1.05232	-6.70938
-1.0024	2.55015
-1.06235	-6.71568
-1.01235	2.57306
-1.07234	-6.72542
-1.02239	2.59024
-1.08237	-6.73916
-1.03238	2.59482
-1.09232	-6.77277
-1.0424	2.59921
-1.10238	-6.80885
-1.05235	2.60303
-1.11231	-6.84608
-1.06237	2.60322
-1.12226	-6.89094
-1.07237	2.61811