File: VFSWV_data_prep/Example_data/CoPc_VFSWV_txt_data/CoPc_CNT_VFSWV_scans_34_33_C02.txt
Ewe/V	<I>/mA
-0.122368	-0.00743734
-0.0723447	0.0423629
-0.132355	-0.00390199
-0.0823706	0.0409628
-0.142316	-0.0102658
-0.0923814	0.032499
-0.152327	-0.0152296
-0.102335	0.0350445
-0.162456	-0.0110931
-0.112345	0.0333899
-0.172482	-0.0145932
-0.122383	0.0387992
-0.182435	-0.0163114
-0.132371	0.0385446
-0.192435	-0.0184751
-0.142316	0.0367627
-0.202415	-0.0171387
-0.152308	0.0312262
-0.212445	-0.0176478
-0.162471	0.0435084
-0.22239	-0.0235025
-0.172413	0.0335172
-0.232409	-0.017966
-0.182416	0.0376537
-0.242423	-0.0258571
-0.192438	0.03689
-0.25243	-0.0238843
-0.202411	0.0384173
-0.262391	-0.0229298
-0.212414	0.0338354
-0.272436	-0.0348937
-0.222398	0.0356809
-0.282378	-0.0347028
-0.232432	0.0336445
-0.292477	-0.0359756
-0.242431	0.03689
-0.302338	-0.036421
-0.252434	0.0412174
-0.312383	-0.0420848
-0.26241	0.0411538
-0.322386	-0.0402393
-0.272367	0.0368264
-0.332374	-0.048385
-0.282428	0.0452902
-0.342392	-0.0443758
-0.292385	0.03829
-0.352354	-0.0485123
-0.302384	0.0393719
-0.362364	-0.0550034
-0.312345	0.0408992
-0.372375	-0.0547488
-0.322386	0.0369536
-0.382351	-0.0591398
-0.332401	0.0480267
-0.392412	-0.0716765
-0.342423	0.0480267
-0.40235	-0.0814768
-0.352373	0.0512722
-0.41236	-0.0909589
-0.362372	0.0527359
-0.422348	-0.116414
-0.372406	0.0536905
-0.432363	-0.148297
-0.382374	0.0637453
-0.44237	-0.19138
-0.392362	0.0722728
-0.45238	-0.253172
-0.402418	0.0864641
-0.462337	-0.336538
-0.412326	0.109947
-0.472348	-0.445105
-0.422352	0.150484
-0.482294	-0.580145
-0.432332	0.209667
-0.492343	-0.74064
-0.442354	0.299015
-0.502361	-0.899481
-0.452369	0.42871
-0.512372	-1.09148
-0.462372	0.570941
-0.522333	-1.26623
-0.472314	0.732836
-0.532309	-1.42806
-0.482378	0.894031
-0.54232	-1.57538
-0.49232	1.04326
-0.552361	-1.68662
-0.502319	1.16227
-0.562284	-1.75783
-0.512345	1.25448
-0.572371	-1.78392
-0.52234	1.31894
-0.582389	-1.76731
-0.532347	1.3332
-0.592354	-1.69597
-0.542343	1.31481
-0.602411	-1.57404
-0.552277	1.26485
-0.612387	-1.42799
-0.562311	1.17467
-0.622394	-1.2689
-0.57231	1.07317
-0.632378	-1.08963
-0.582404	0.951942
-0.6424	-0.9327
-0.592381	0.825684
-0.652342	-0.800142
-0.602372	0.709035
-0.662379	-0.685657
-0.612398	0.591369
-0.672386	-0.602863
-0.622371	0.492157
-0.682366	-0.54508
-0.632439	0.404464
-0.692407	-0.504797
-0.642339	0.33828
-0.702372	-0.479469
-0.652414	0.283488
-0.712349	-0.454014
-0.662364	0.253769
-0.722382	-0.437532
-0.672359	0.226595
-0.732378	-0.431232
-0.682389	0.195731
-0.742335	-0.426968
-0.692369	0.181412
-0.75233	-0.42054
-0.702395	0.172312
-0.762333	-0.423086
-0.712402	0.165439
-0.772371	-0.422831
-0.722363	0.161684
-0.782355	-0.426013
-0.732397	0.148702
-0.792346	-0.432504
-0.742339	0.151439
-0.802345	-0.424804
-0.752353	0.146602
-0.812337	-0.416977
-0.762318	0.147938
-0.822359	-0.411949
-0.772359	0.135784
-0.832355	-0.415258
-0.782324	0.138265
-0.842388	-0.40514
-0.792304	0.139347
-0.85238	-0.403358
-0.802338	0.130756
-0.862333	-0.385603
-0.812322	0.133493
-0.872363	-0.381785
-0.822336	0.117456
-0.882335	-0.362948
-0.832351	0.110965
-0.892365	-0.355502
-0.842331	0.107974
-0.902265	-0.344302
-0.852338	0.100655
-0.912306	-0.340356
-0.862341	0.094737
-0.922336	-0.320692
-0.872359	0.0838549
-0.932374	-0.310319
-0.882305	0.082073
-0.942338	-0.300774
-0.892304	0.0787002
-0.952353	-0.290082
-0.902357	0.0766638
-0.962299	-0.284673
-0.912329	0.0636816
-0.972271	-0.277355
-0.922317	0.0678818
-0.982316	-0.278882
-0.932374	0.0635544
-0.992441	-0.274555
-0.942361	0.0625998
-1.00245	-0.277227
-0.952307	0.0680727
-1.01237	-0.267555
-0.962283	0.0683909
-1.02245	-0.274809
-0.972325	0.0722728
-1.03236	-0.276337
-0.982309	0.0722728
-1.04242	-0.280664
-0.992407	0.0722091
-1.05241	-0.278564
-1.00239	0.0705546
-1.06238	-0.28671
-1.01236	0.0750092
-1.07233	-0.29861
-1.02236	0.0774275
-1.08239	-0.30211
-1.03239	0.0787002
-1.09238	-0.305992
-1.04242	0.079973
-1.10238	-0.315983
-1.0524	0.0876096
-1.11241	-0.328456
-1.06235	0.0905369
-1.12237	-0.333865
-1.07241	0.0945461