File: VFSWV_data_prep/Example_data/CoPc_VFSWV_txt_data/CoPc_CNT_VFSWV_scans_26_25_C02.txt
Ewe/V	<I>/mA
-0.122348	-0.00243539
-0.0723218	0.0653999
-0.132317	-0.0242344
-0.0823134	0.0535632
-0.142316	-0.0259526
-0.0923394	0.060627
-0.152297	-0.0317755
-0.102331	0.0582406
-0.162391	-0.0299618
-0.112296	0.0565224
-0.172379	-0.0309164
-0.12228	0.0513677
-0.182436	-0.0334937
-0.13226	0.0591952
-0.192404	-0.0401757
-0.142316	0.0569042
-0.2024	-0.0434212
-0.152369	0.0604361
-0.212418	-0.0457122
-0.162372	0.054995
-0.222421	-0.0505805
-0.172417	0.053945
-0.232348	-0.0501987
-0.182378	0.0607225
-0.242366	-0.056117
-0.192381	0.0608179
-0.252354	-0.0545897
-0.202312	0.0586224
-0.262349	-0.0641354
-0.212387	0.0619634
-0.272371	-0.0600308
-0.222394	0.0623452
-0.282344	-0.0670946
-0.23237	0.0590997
-0.292343	-0.0733948
-0.242351	0.0672136
-0.302354	-0.0816995
-0.252361	0.0608179
-0.31233	-0.0867588
-0.262349	0.0579542
-0.322337	-0.080745
-0.272409	0.0690272
-0.332283	-0.0950635
-0.282363	0.0690272
-0.342312	-0.0933453
-0.292385	0.0672136
-0.352384	-0.108523
-0.302361	0.0680727
-0.362341	-0.112246
-0.312338	0.07065
-0.372341	-0.134296
-0.322375	0.0730364
-0.382328	-0.155297
-0.332321	0.0775229
-0.392301	-0.178493
-0.342351	0.0918415
-0.402346	-0.214099
-0.352327	0.0927961
-0.41233	-0.2624
-0.362345	0.106828
-0.422325	-0.336284
-0.372302	0.122674
-0.432294	-0.43575
-0.382328	0.160189
-0.442301	-0.558508
-0.392309	0.206581
-0.452296	-0.728612
-0.402323	0.283328
-0.462322	-0.922868
-0.412318	0.387472
-0.472314	-1.1576
-0.422279	0.546313
-0.48224	-1.41905
-0.43234	0.737609
-0.492305	-1.70208
-0.442297	0.963078
-0.502296	-1.99705
-0.452308	1.20802
-0.512269	-2.27864
-0.462315	1.46022
-0.522314	-2.54487
-0.472306	1.69495
-0.532282	-2.78705
-0.482267	1.89989
-0.542285	-2.99667
-0.492293	2.04728
-0.552323	-3.15885
-0.502292	2.18016
-0.562249	-3.27388
-0.512303	2.25576
-0.572378	-3.33325
-0.522283	2.31437
-0.582363	-3.33507
-0.532294	2.31628
-0.59235	-3.26853
-0.54232	2.29509
-0.602369	-3.14158
-0.552292	2.22445
-0.612379	-2.95544
-0.562269	2.12241
-0.622359	-2.74075
-0.572344	1.99277
-0.632401	-2.47481
-0.582351	1.83775
-0.642293	-2.19054
-0.592396	1.66851
-0.652395	-1.91648
-0.60233	1.48399
-0.662353	-1.67106
-0.612345	1.30424
-0.672329	-1.45733
-0.622371	1.12746
-0.682339	-1.28026
-0.632378	0.958878
-0.692358	-1.13621
-0.642373	0.829629
-0.702422	-1.0378
-0.652357	0.704962
-0.712368	-0.956468
-0.662322	0.605401
-0.722317	-0.904158
-0.672352	0.529894
-0.73232	-0.867502
-0.682381	0.469947
-0.742362	-0.83772
-0.692358	0.418973
-0.752281	-0.822733
-0.70238	0.385849
-0.762299	-0.805455
-0.712326	0.363512
-0.772302	-0.791328
-0.722306	0.340507
-0.782271	-0.794382
-0.732278	0.330675
-0.792274	-0.789609
-0.742323	0.313207
-0.802284	-0.7877
-0.752323	0.306906
-0.812291	-0.785027
-0.762356	0.292492
-0.822302	-0.780827
-0.772294	0.283901
-0.832343	-0.773668
-0.782332	0.281706
-0.842262	-0.768418
-0.79227	0.27426
-0.852277	-0.752858
-0.802284	0.265382
-0.86231	-0.745699
-0.812272	0.25956
-0.87229	-0.721548
-0.822283	0.247341
-0.882313	-0.699402
-0.832305	0.236459
-0.892281	-0.676779
-0.842308	0.220804
-0.902269	-0.657879
-0.852235	0.217081
-0.912299	-0.637642
-0.862291	0.201235
-0.922264	-0.617405
-0.87234	0.186535
-0.932267	-0.597359
-0.882301	0.184339
-0.942235	-0.577217
-0.892293	0.174507
-0.952261	-0.569676
-0.902254	0.164866
-0.962268	-0.563281
-0.912249	0.163434
-0.972229	-0.550776
-0.922256	0.157421
-0.982366	-0.537889
-0.932293	0.16353
-0.992346	-0.541803
-0.94227	0.159139
-1.0024	-0.539321
-0.952238	0.156275
-1.01236	-0.536171
-0.962283	0.164675
-1.02241	-0.544571
-0.972225	0.159521
-1.0324	-0.543998
-0.982389	0.167444
-1.04234	-0.54858
-0.99238	0.174507
-1.05232	-0.55994
-1.00233	0.179089
-1.06235	-0.560512
-1.01237	0.189303
-1.07239	-0.575881
-1.02232	0.177371
-1.08235	-0.582945
-1.03232	0.187776
-1.09233	-0.605759
-1.0423	0.197035
-1.10236	-0.609959
-1.05235	0.203908
-1.11232	-0.637069
-1.06235	0.205722
-1.12235	-0.665324
-1.07237	0.22195