File: VFSWV_data_prep/Example_data/CoPc_VFSWV_txt_data/CoPc_CNT_VFSWV_scans_71_70_C02.txt
Ewe/V	<I>/mA
-0.122429	0.0123032
-0.0723795	0.015067
-0.132413	0.0117638
-0.082333	0.00813039
-0.142397	0.00595245
-0.0923436	0.0107647
-0.152419	0.00542042
-0.102331	0.00956667
-0.162407	0.0048277
-0.112457	0.00875446
-0.172425	0.00559009
-0.12246	0.0076464
-0.182428	0.00178925
-0.132444	0.00493314
-0.192389	0.00377122
-0.142462	0.0063808
-0.202389	0.00383241
-0.152404	0.0102904
-0.212426	0.00675859
-0.162396	0.00811294
-0.222414	0.00276228
-0.172406	0.00600429
-0.23244	0.00296837
-0.182402	0.00645742
-0.24242	0.00676162
-0.192393	0.00581261
-0.252411	0.00760316
-0.20248	0.00678792
-0.262365	0.00378538
-0.212426	0.00566266
-0.272368	0.0028824
-0.222372	0.0085064
-0.282398	0.0071963
-0.232333	0.0059575
-0.292378	0.00251599
-0.24237	0.00810181
-0.302358	0.0042241
-0.252366	0.00705773
-0.312361	0.00839539
-0.262384	0.00737002
-0.32236	0.0047885
-0.272383	0.00632745
-0.332359	0.00907636
-0.282382	0.00817312
-0.342336	0.00667792
-0.292385	0.00623616
-0.352346	0.00758521
-0.302442	0.00665972
-0.362334	0.00545759
-0.31235	0.00905512
-0.372352	0.00685695
-0.322402	0.00996746
-0.382363	0.00862879
-0.332352	0.011912
-0.392336	0.0108189
-0.342298	0.0143203
-0.402362	0.00880175
-0.352327	0.0139031
-0.412353	0.0104972
-0.362372	0.0210261
-0.422352	0.0154883
-0.372372	0.013696
-0.432314	0.00830284
-0.382344	0.012198
-0.442339	0.00797538
-0.39232	0.0113114
-0.45227	0.00630267
-0.402381	0.0124339
-0.462281	0.0104952
-0.412399	0.0134907
-0.472345	0.00683141
-0.422364	0.0149075
-0.482325	0.0093573
-0.432329	0.0126759
-0.49232	0.00615499
-0.44232	0.0101892
-0.50232	0.00543003
-0.452323	0.0136312
-0.512345	0.00694824
-0.462334	0.0129733
-0.522307	0.00258528
-0.472322	0.0106429
-0.532458	0.00600631
-0.482359	0.0141314
-0.542404	0.00433081
-0.49232	0.0114566
-0.552415	0.00227223
-0.502297	0.0116419
-0.562429	0.010167
-0.512323	0.0157429
-0.572402	0.00363366
-0.522268	0.0127558
-0.582332	0.00586951
-0.532397	0.0147793
-0.592316	-0.000818306
-0.542431	0.0108704
-0.60243	0.00297242
-0.552415	0.0128797
-0.612426	0.00352796
-0.56238	0.0155965
-0.622444	0.00495565
-0.57241	0.0154056
-0.632401	0.00468483
-0.582363	0.0160997
-0.642366	0.00755941
-0.592385	0.0181158
-0.652396	0.00463653
-0.602365	0.0168141
-0.662345	0.00901871
-0.612315	0.0193372
-0.672356	0.00862221
-0.622387	0.019081
-0.682378	0.00819967
-0.632336	0.0209525
-0.692274	0.0111104
-0.642347	0.0207778
-0.70235	0.00912339
-0.652327	0.0185482
-0.71236	0.00727671
-0.662338	0.0181785
-0.722337	0.00811648
-0.672387	0.0191746
-0.732294	0.00471467
-0.682386	0.0196525
-0.742312	0.00514858
-0.692316	0.0225906
-0.752319	0.00919571
-0.70238	0.0194972
-0.762334	0.00476625
-0.712357	0.0170346
-0.772364	0.0137182
-0.722314	0.0184051
-0.782317	0.00532483
-0.732302	0.0173026
-0.792343	0.00455612
-0.742358	0.0178523
-0.802338	0.00972041
-0.752403	0.0193379
-0.812307	0.00718896
-0.762292	0.0179722
-0.822306	0.00785653
-0.772375	0.0154719
-0.832309	0.00444435
-0.782336	0.0219753
-0.842282	0.0039151
-0.792351	0.0152933
-0.852292	0.00346829
-0.802319	0.012416
-0.862334	0.00511748
-0.812273	0.0175714
-0.872329	0.00378993
-0.822314	0.0140138
-0.882279	0.00560223
-0.832328	0.0141681
-0.892354	0.00660914
-0.842316	0.0142523
-0.902319	0.00557188
-0.852311	0.0175818
-0.912253	0.00699704
-0.862273	0.0170566
-0.92223	0.00660206
-0.87231	0.0138877
-0.932237	0.00725623
-0.88234	0.0142546
-0.942369	0.00660939
-0.89232	0.0136813
-0.952418	0.0095429
-0.902323	0.0150073
-0.962372	0.0081491
-0.912364	0.0137789
-0.972375	0.00246415
-0.922356	0.00924704
-0.982363	0.00240903
-0.932336	0.0125738
-0.992358	0.00135887
-0.942335	0.0148045
-1.0023	0.00387186
-0.952392	0.0113911
-1.01243	0.00357955
-0.962387	0.0103556
-1.02238	0.00262725
-0.972375	0.00602805
-1.03235	-0.00436248
-0.982385	0.00554761
-1.04239	-0.00453949
-0.992381	0.00402358
-1.05242	-0.00179867
-1.00239	0.0110897
-1.06235	-0.00127347
-1.01243	0.00882451
-1.07235	-0.000247839
-1.0224	0.00899266
-1.08241	4.75747e-07
-1.03236	0.0109739
-1.0924	-0.000675689
-1.04238	0.0134717
-1.10238	-0.00055052
-1.05238	0.0152954
-1.11233	-0.00265892
-1.06239	0.00991284
-1.12232	0.00191442
-1.07238	0.0112343