File: VFSWV_data_prep/Example_data/CoPc_VFSWV_txt_data/CoPc_CNT_VFSWV_scans_13_12_C02.txt
Ewe/V	<I>/mA
-0.122426	-0.122139
-0.0724454	0.299397
-0.132418	-0.347293
-0.0824409	0.284633
-0.142409	-0.354293
-0.0924324	0.283869
-0.152336	-0.364857
-0.10242	0.276615
-0.162404	-0.372239
-0.112404	0.278906
-0.172388	-0.388658
-0.122445	0.282342
-0.182425	-0.401004
-0.13238	0.285397
-0.192448	-0.404822
-0.142387	0.291124
-0.202397	-0.40444
-0.152439	0.304488
-0.212404	-0.423659
-0.162416	0.298888
-0.222407	-0.432823
-0.172407	0.301815
-0.232429	-0.440841
-0.182422	0.306143
-0.242394	-0.455478
-0.192406	0.312888
-0.252386	-0.453823
-0.202382	0.320652
-0.262389	-0.46986
-0.212374	0.319252
-0.272392	-0.486788
-0.222419	0.322943
-0.28238	-0.493024
-0.232399	0.329052
-0.292379	-0.510716
-0.242383	0.340253
-0.302344	-0.539353
-0.252367	0.342162
-0.312335	-0.552462
-0.262351	0.358326
-0.322369	-0.582245
-0.272342	0.356671
-0.33236	-0.616737
-0.282395	0.371944
-0.342394	-0.661665
-0.292364	0.391163
-0.352313	-0.709903
-0.30234	0.420309
-0.362385	-0.773923
-0.312362	0.447801
-0.372369	-0.861234
-0.322384	0.48802
-0.382349	-0.967382
-0.332349	0.540713
-0.392321	-1.09466
-0.342344	0.612751
-0.402294	-1.25719
-0.352344	0.707826
-0.412366	-1.4579
-0.362358	0.819575
-0.422311	-1.69947
-0.372327	0.986561
-0.432421	-1.99145
-0.382315	1.17493
-0.442398	-2.30811
-0.392283	1.41306
-0.452412	-2.66779
-0.402374	1.68073
-0.462411	-3.04746
-0.412305	1.97053
-0.472376	-3.44176
-0.422296	2.26289
-0.482414	-3.83708
-0.432406	2.52597
-0.492394	-4.21903
-0.442402	2.76117
-0.502389	-4.59233
-0.45242	2.95361
-0.512377	-4.92898
-0.462377	3.10927
-0.522388	-5.24666
-0.472399	3.21351
-0.532394	-5.53214
-0.482395	3.29026
-0.54239	-5.76951
-0.49244	3.33417
-0.552412	-5.97481
-0.502401	3.3567
-0.562362	-6.12512
-0.512438	3.36242
-0.572361	-6.24527
-0.522365	3.36332
-0.582394	-6.30254
-0.532429	3.33481
-0.59234	-6.29325
-0.54239	3.30375
-0.602374	-6.23254
-0.552439	3.28097
-0.6124	-6.11914
-0.562388	3.22891
-0.622369	-5.94044
-0.572388	3.17787
-0.632391	-5.70307
-0.582368	3.11233
-0.642367	-5.40728
-0.592401	3.01331
-0.65237	-5.08273
-0.602404	2.88679
-0.662335	-4.74799
-0.612407	2.73788
-0.672345	-4.39187
-0.622357	2.57726
-0.682379	-4.05688
-0.632391	2.40747
-0.692352	-3.73589
-0.642413	2.22241
-0.702339	-3.4611
-0.652362	2.0385
-0.712388	-3.21113
-0.662327	1.87508
-0.722334	-3.00711
-0.672368	1.72413
-0.732421	-2.84063
-0.682337	1.58565
-0.742313	-2.71807
-0.692348	1.46716
-0.752339	-2.60517
-0.702362	1.37857
-0.762304	-2.54179
-0.712358	1.2961
-0.772296	-2.48082
-0.72233	1.23589
-0.782284	-2.44493
-0.732375	1.18562
-0.792306	-2.41973
-0.742302	1.12924
-0.802328	-2.40777
-0.752274	1.10085
-0.812285	-2.38129
-0.7623	1.07515
-0.822322	-2.3706
-0.772315	1.05364
-0.832322	-2.35737
-0.782261	1.0306
-0.842451	-2.34616
-0.792306	1.02016
-0.852393	-2.32529
-0.802316	0.996488
-0.862403	-2.30811
-0.812335	0.988216
-0.872437	-2.27196
-0.822315	0.958433
-0.882421	-2.24282
-0.832299	0.940487
-0.892405	-2.19712
-0.842401	0.91605
-0.902408	-2.15258
-0.852393	0.903322
-0.912399	-2.11656
-0.862415	0.877613
-0.922414	-2.07468
-0.872368	0.864758
-0.932406	-2.0491
-0.88239	0.849994
-0.942405	-2.01932
-0.892412	0.829375
-0.952362	-1.9931
-0.902343	0.826193
-0.962346	-1.97477
-0.912415	0.824157
-0.972349	-1.96077
-0.922399	0.831029
-0.982409	-1.96141
-0.932409	0.83803
-0.992447	-1.94881
-0.942416	0.846557
-1.00235	-1.95046
-0.952351	0.858903
-1.01239	-1.96115
-0.962335	0.876849
-1.02238	-1.97185
-0.97238	0.889322
-1.0324	-1.97248
-0.982417	0.907395
-1.04236	-1.98063
-0.992374	0.916432
-1.05234	-1.99972
-1.0024	0.928396
-1.06231	-2.0211
-1.01237	0.94036
-1.07233	-2.04618
-1.02237	0.95856
-1.08236	-2.07227
-1.03234	0.96696
-1.09238	-2.11236
-1.04234	0.984143
-1.10234	-2.14176
-1.05241	1.00565
-1.11235	-2.18529
-1.0623	1.02983
-1.12234	-2.22729
-1.07233	1.05211