File: VFSWV_data_prep/Example_data/CoPc_VFSWV_txt_data/CoPc_CNT_VFSWV_scans_68_67_C02.txt
Ewe/V	<I>/mA
-0.122573	0.0263163
-0.0724774	0.0268804
-0.132507	0.0213841
-0.082488	0.0262122
-0.142598	0.0211731
-0.0925675	0.0211429
-0.152563	0.020736
-0.102582	0.0248658
-0.162547	0.0165158
-0.112547	0.0227406
-0.172569	0.025966
-0.122584	0.022203
-0.182595	0.0170031
-0.132568	0.0204747
-0.192522	0.0179677
-0.142556	0.0208867
-0.202567	0.0184199
-0.152521	0.0243232
-0.212528	0.0175005
-0.162539	0.0219468
-0.222538	0.0158878
-0.17255	0.0222583
-0.232492	0.0170031
-0.182587	0.0206054
-0.24248	0.0168876
-0.192541	0.0170282
-0.252505	0.0188017
-0.202513	0.0175206
-0.262463	0.0134863
-0.212551	0.0191986
-0.272504	0.0178019
-0.222496	0.0198518
-0.282492	0.016988
-0.232545	0.0245844
-0.292502	0.013421
-0.242518	0.0184651
-0.302494	0.0137927
-0.252525	0.0166766
-0.312478	0.0164053
-0.262478	0.0226803
-0.322511	0.0205702
-0.272519	0.0231777
-0.332473	0.0170684
-0.282522	0.0193041
-0.34251	0.0152799
-0.292533	0.0231325
-0.352498	0.0185455
-0.302521	0.0223286
-0.362535	0.0175407
-0.312489	0.0248507
-0.372519	0.0156918
-0.322538	0.0220674
-0.382442	0.0128482
-0.332476	0.0195604
-0.392498	0.0153452
-0.34243	0.0198166
-0.40244	0.0141796
-0.352479	0.0223789
-0.412482	0.0157521
-0.362493	0.0165911
-0.422485	0.0130592
-0.372458	0.0204898
-0.432476	0.0156768
-0.382495	0.0203793
-0.442468	0.0140741
-0.392495	0.0188068
-0.452456	0.013019
-0.402524	0.020957
-0.462436	0.0104065
-0.412508	0.01845
-0.472446	0.0103111
-0.42245	0.021992
-0.482415	0.0110396
-0.432434	0.0229164
-0.492472	0.00890936
-0.442502	0.0254385
-0.502528	0.00752774
-0.452524	0.0204999
-0.51255	0.00347333
-0.462485	0.0172443
-0.522519	0.0042621
-0.472443	0.0184752
-0.532594	0.00863806
-0.482499	0.0239212
-0.542533	0.0148679
-0.492559	0.0239966
-0.552528	0.00423196
-0.502543	0.0238258
-0.56252	0.00729664
-0.512565	0.0242177
-0.572519	0.00419679
-0.522572	0.0203944
-0.582591	0.00275991
-0.532587	0.0248658
-0.592533	0.00531213
-0.542563	0.0178673
-0.602547	-0.000636352
-0.552517	0.02053
-0.612523	0.000509133
-0.562558	0.0200728
-0.622488	-0.00096794
-0.572458	0.0220724
-0.632518	-0.00450488
-0.582537	0.0178321
-0.642483	-0.00341466
-0.592513	0.0208666
-0.652505	-0.00494197
-0.602543	0.0188068
-0.662474	-0.00268617
-0.612497	0.0204345
-0.672549	-0.00451995
-0.622492	0.0189675
-0.682514	-0.00126938
-0.632529	0.0199723
-0.69251	-0.00153063
-0.642475	0.0209671
-0.702516	-0.00494197
-0.652497	0.0202034
-0.712504	-0.000530847
-0.662466	0.021987
-0.722439	-0.000415294
-0.672496	0.0231174
-0.732461	-0.00300268
-0.682514	0.0193644
-0.742456	-0.00640397
-0.692483	0.0185555
-0.752425	-0.00470584
-0.702482	0.018234
-0.762405	-0.00564031
-0.712458	0.0161741
-0.772454	-0.00667527
-0.722473	0.0188118
-0.782491	-0.00864973
-0.732484	0.0170584
-0.792441	-0.0075997
-0.742479	0.0153351
-0.802455	-0.00550466
-0.752425	0.0194297
-0.812435	-0.00525346
-0.762455	0.0211027
-0.822457	-0.00463048
-0.772496	0.0203089
-0.832453	0.00161945
-0.782449	0.020535
-0.842429	-0.00475106
-0.792437	0.0161139
-0.852478	-0.00335939
-0.802417	0.0153402
-0.862458	-0.000777026
-0.812458	0.0201432
-0.8724	-0.00199787
-0.822465	0.0173196
-0.882449	0.000956274
-0.832434	0.0214092
-0.892444	0.00701529
-0.842467	0.0244638
-0.902512	0.00237306
-0.852409	0.0201884
-0.9125	-0.00136484
-0.862489	0.0199673
-0.922553	0.00304126
-0.872438	0.0159129
-0.932544	0.00600545
-0.882457	0.021575
-0.942498	0.00744736
-0.892467	0.0219166
-0.952551	0.00502074
-0.902535	0.0278852
-0.962546	0.0101955
-0.912565	0.0189324
-0.972507	0.00324724
-0.922503	0.0189123
-0.982541	0.00404607
-0.932529	0.0213439
-0.992578	0.00362405
-0.942547	0.0207712
-1.00252	0.00500064
-0.952497	0.0211379
-1.01256	0.0068093
-0.962496	0.0214846
-1.02251	0.00770861
-0.972534	0.0218564
-1.03246	0.00853255
-0.982479	0.0192087
-1.04245	0.00675906
-0.992471	0.0237555
-1.05249	0.011125
-1.00254	0.0196608
-1.06251	0.00154911
-1.01252	0.0196357
-1.07255	0.00581956
-1.02252	0.0208515
-1.08244	0.0046992
-1.03248	0.0256797
-1.09245	0.00803517
-1.04252	0.0240117
-1.10252	0.00644757
-1.05246	0.0259711
-1.1125	0.0045535
-1.06246	0.0244086
-1.12245	0.0102458
-1.07247	0.02574