File: VFSWV_data_prep/Example_data/CoPc_VFSWV_txt_data/CoPc_CNT_VFSWV_scans_50_49_C02.txt
Ewe/V	<I>/mA
-0.122383	-0.00186265
-0.0723869	0.0242715
-0.132352	0.00708921
-0.0823709	0.0240806
-0.142347	0.00220726
-0.0924007	0.0188441
-0.152362	-0.000547355
-0.102343	0.0198532
-0.162384	-0.00332925
-0.112388	0.0171531
-0.172341	-0.00150193
-0.122364	0.015544
-0.182367	0.00239818
-0.132378	0.0190895
-0.192362	-0.00027462
-0.142343	0.0184077
-0.202396	-0.00398381
-0.152331	0.0176986
-0.212472	0.00231636
-0.16238	0.0173168
-0.222452	-0.000138253
-0.172345	0.0169077
-0.232447	-0.00376562
-0.182352	0.0184622
-0.242458	-0.00215649
-0.192397	0.014453
-0.252415	-0.000301894
-0.202442	0.0170168
-0.262452	-0.00444746
-0.212407	0.0154622
-0.272448	-0.0064657
-0.222478	0.0138258
-0.282416	-0.00480201
-0.232451	0.0196896
-0.292408	-0.0068748
-0.242385	0.0131166
-0.302438	-0.00744754
-0.252423	0.0102802
-0.312353	-0.00627478
-0.262487	0.0207532
-0.322432	-0.00992943
-0.272444	0.0136076
-0.332397	-0.0114295
-0.282397	0.0157349
-0.342355	-0.0104203
-0.292389	0.0207805
-0.352396	-0.00927486
-0.302411	0.0180804
-0.362414	-0.0112658
-0.312433	0.0191986
-0.372364	-0.0129568
-0.322436	0.0170168
-0.382409	-0.0164751
-0.332386	0.0170168
-0.392412	-0.0181933
-0.342412	0.014944
-0.402392	-0.0182751
-0.352415	0.0186259
-0.412414	-0.0195024
-0.362384	0.0192532
-0.422413	-0.0244116
-0.372383	0.0188441
-0.432382	-0.0237571
-0.382371	0.0209987
-0.44232	-0.0285845
-0.392423	0.0221714
-0.452388	-0.0297572
-0.402373	0.0262625
-0.462372	-0.0300027
-0.412437	0.0262897
-0.472352	-0.0397393
-0.422364	0.0297807
-0.482367	-0.0498578
-0.43234	0.0279261
-0.492339	-0.0583398
-0.442332	0.0270534
-0.502357	-0.0650491
-0.452403	0.033299
-0.512338	-0.0797222
-0.462345	0.0372537
-0.522306	-0.0941499
-0.472348	0.0379355
-0.532355	-0.10435
-0.482347	0.0444539
-0.542312	-0.118314
-0.492374	0.0577633
-0.552315	-0.124287
-0.502354	0.0638998
-0.562349	-0.134924
-0.512364	0.0762547
-0.572348	-0.13086
-0.522333	0.0880096
-0.582271	-0.130751
-0.532332	0.095728
-0.592312	-0.126796
-0.542297	0.100119
-0.602334	-0.127423
-0.552338	0.0935188
-0.612376	-0.125951
-0.562254	0.0896732
-0.622405	-0.11766
-0.57231	0.0827185
-0.632439	-0.117741
-0.582347	0.0783548
-0.642434	-0.112396
-0.59235	0.0706909
-0.652395	-0.11125
-0.602262	0.0682636
-0.66241	-0.112723
-0.612414	0.058527
-0.672428	-0.108059
-0.622459	0.056536
-0.682382	-0.10525
-0.632408	0.0554178
-0.692408	-0.111114
-0.642392	0.0499358
-0.702422	-0.106232
-0.652384	0.046063
-0.712368	-0.109696
-0.662414	0.0429538
-0.722409	-0.109178
-0.672379	0.0413174
-0.73234	-0.114741
-0.682408	0.0409901
-0.742388	-0.111469
-0.692381	0.0426811
-0.752361	-0.11395
-0.702445	0.0391083
-0.76233	-0.11665
-0.71233	0.0406901
-0.772352	-0.112641
-0.722405	0.0429538
-0.782363	-0.114141
-0.732389	0.0373355
-0.792362	-0.110078
-0.742354	0.0405265
-0.802376	-0.110514
-0.752361	0.0372264
-0.812341	-0.112887
-0.762372	0.0371173
-0.822382	-0.110023
-0.772371	0.0314717
-0.832374	-0.109068
-0.782378	0.0331081
-0.842339	-0.107596
-0.792331	0.0340627
-0.852384	-0.107214
-0.80233	0.0339808
-0.862356	-0.10705
-0.812368	0.0305171
-0.872378	-0.102632
-0.822329	0.0372264
-0.882374	-0.101132
-0.832359	0.0383991
-0.892385	-0.0927317
-0.842362	0.026017
-0.902307	-0.0907952
-0.852391	0.0223351
-0.91231	-0.0868133
-0.862387	0.0239442
-0.922352	-0.0844951
-0.872401	0.0216532
-0.932389	-0.0851769
-0.882374	0.0198805
-0.942331	-0.0765312
-0.892335	0.0226078
-0.952353	-0.0788222
-0.902307	0.0214623
-0.962345	-0.0755767
-0.91231	0.0213532
-0.972325	-0.0738584
-0.922329	0.0167167
-0.982316	-0.0755221
-0.932313	0.0170713
-0.992358	-0.0756312
-0.9423	0.021026
-1.00232	-0.0781949
-0.952349	0.0168258
-1.01233	-0.0790404
-0.962364	0.0171804
-1.02244	-0.0762039
-0.972317	0.0212987
-1.0324	-0.0747312
-0.982297	0.0186532
-1.04244	-0.0783313
-0.99235	0.0203714
-1.05245	-0.0786858
-1.00233	0.0194441
-1.06238	-0.0814404
-1.01242	0.022526
-1.07233	-0.0828587
-1.02241	0.0207259
-1.08243	-0.0848769
-1.03242	0.0192259
-1.09236	-0.0873861
-1.04241	0.0191168
-1.10237	-0.0819586
-1.05242	0.0173986
-1.11233	-0.0876042
-1.06239	0.0238351
-1.12237	-0.0966045
-1.07245	0.0195259