File: VFSWV_data_prep/Example_data/CoPc_VFSWV_txt_data/CoPc_CNT_VFSWV_scans_03_2_C02.txt
Ewe/V	<I>/mA
-0.122319	-2.02624
-0.072365	4.17464
-0.132303	-4.66679
-0.082349	3.56734
-0.142314	-4.84415
-0.0923253	3.50987
-0.152282	-4.89398
-0.102382	3.50014
-0.162305	-4.92853
-0.112305	3.50166
-0.172327	-4.95412
-0.122277	3.50644
-0.18228	-4.9755
-0.132299	3.50892
-0.192314	-5.00032
-0.142314	3.51217
-0.202301	-5.03105
-0.152305	3.52247
-0.212289	-5.05797
-0.162308	3.51541
-0.222254	-5.07344
-0.172308	3.51713
-0.232292	-5.09329
-0.182292	3.524
-0.242333	-5.12021
-0.192275	3.51006
-0.25229	-5.13548
-0.202225	3.50682
-0.262293	-5.154
-0.212297	3.50777
-0.272365	-5.18531
-0.222266	3.50663
-0.282391	-5.21777
-0.232246	3.52114
-0.292401	-5.23285
-0.242256	3.52362
-0.302382	-5.27791
-0.252267	3.51942
-0.312385	-5.318
-0.262247	3.53164
-0.322338	-5.3495
-0.272384	3.52133
-0.332326	-5.40735
-0.282337	3.5345
-0.342355	-5.47989
-0.292359	3.56658
-0.35234	-5.55454
-0.302401	3.58567
-0.362362	-5.65554
-0.312377	3.6124
-0.37233	-5.77237
-0.322327	3.64924
-0.382329	-5.90067
-0.332299	3.68265
-0.392314	-6.07956
-0.342291	3.72523
-0.40237	-6.26054
-0.352347	3.77066
-0.41235	-6.46997
-0.362335	3.79815
-0.422342	-6.70919
-0.372311	3.82507
-0.432345	-6.96864
-0.382322	3.83195
-0.442298	-7.25024
-0.392283	3.81629
-0.452374	-7.55131
-0.402294	3.77009
-0.462312	-7.86957
-0.412312	3.68952
-0.472326	-8.20634
-0.422365	3.57898
-0.482276	-8.57366
-0.432307	3.43255
-0.492325	-8.94079
-0.442348	3.25329
-0.502301	-9.31612
-0.452271	3.04901
-0.512243	-9.70273
-0.462316	2.82373
-0.522265	-10.0874
-0.472338	2.56886
-0.532264	-10.474
-0.482322	2.32201
-0.542241	-10.8583
-0.492306	2.04518
-0.55229	-11.236
-0.502309	1.78401
-0.562186	-11.5798
-0.512274	1.51578
-0.572269	-11.9089
-0.522258	1.26797
-0.58223	-12.2054
-0.532303	1.05357
-0.592298	-12.4399
-0.542252	0.853303
-0.602229	-12.6315
-0.552305	0.705344
-0.612338	-12.7671
-0.56227	0.610078
-0.62238	-12.8177
-0.572303	0.570559
-0.632329	-12.7816
-0.582226	0.586596
-0.642363	-12.6495
-0.592294	0.676134
-0.652351	-12.424
-0.602286	0.838793
-0.662319	-12.1195
-0.612331	1.03754
-0.67233	-11.74
-0.62233	1.29031
-0.68228	-11.3234
-0.632379	1.5551
-0.692332	-10.8736
-0.642397	1.80959
-0.70235	-10.4435
-0.652335	2.0259
-0.712373	-10.049
-0.662315	2.20784
-0.722299	-9.69585
-0.672322	2.33461
-0.732318	-9.39421
-0.682329	2.41059
-0.742302	-9.15175
-0.692309	2.46615
-0.752297	-8.94079
-0.702324	2.49058
-0.762319	-8.78271
-0.712308	2.49574
-0.772292	-8.65461
-0.722334	2.48715
-0.782291	-8.55781
-0.73236	2.45374
-0.792267	-8.49233
-0.742233	2.44209
-0.802266	-8.44002
-0.752305	2.41345
-0.812277	-8.41024
-0.762312	2.3789
-0.82233	-8.39114
-0.772311	2.33594
-0.832291	-8.37778
-0.782295	2.32468
-0.842336	-8.369
-0.792294	2.29451
-0.852286	-8.36098
-0.802286	2.26798
-0.862227	-8.35621
-0.812323	2.25328
-0.872315	-8.35583
-0.822269	2.23323
-0.882268	-8.33253
-0.832325	2.23018
-0.892248	-8.31669
-0.842317	2.22178
-0.902259	-8.29149
-0.852293	2.23113
-0.912296	-8.27182
-0.862273	2.23228
-0.922238	-8.24624
-0.872307	2.25251
-0.932253	-8.22448
-0.882325	2.26645
-0.94224	-8.1924
-0.892298	2.28993
-0.9524	-8.17923
-0.902255	2.31991
-0.962376	-8.15231
-0.912304	2.3621
-0.972345	-8.13685
-0.922257	2.39131
-0.982329	-8.11184
-0.932234	2.42166
-0.992363	-8.10095
-0.942225	2.45202
-1.00237	-8.09695
-0.952346	2.46996
-1.01229	-8.08301
-0.962311	2.49612
-1.02231	-8.08454
-0.972353	2.51139
-1.03232	-8.0769
-0.982344	2.54175
-1.04231	-8.08263
-0.992366	2.56141
-1.05233	-8.08625
-1.00233	2.58318
-1.06232	-8.08339
-1.01235	2.60074
-1.07229	-8.09141
-1.02234	2.60761
-1.08234	-8.09408
-1.03233	2.62308
-1.09229	-8.11317
-1.04233	2.61716
-1.10233	-8.14525
-1.05229	2.6288
-1.11231	-8.16338
-1.06232	2.6248
-1.12235	-8.21932
-1.07233	2.61926