File: VFSWV_data_prep/Example_data/CoPc_VFSWV_txt_data/CoPc_CNT_VFSWV_scans_63_62_C02.txt
Ewe/V	<I>/mA
-0.12268	0.0276909
-0.0726955	0.0350098
-0.132664	0.0270608
-0.0827176	0.0340899
-0.142633	0.0302369
-0.0926863	0.0325366
-0.152647	0.0280154
-0.102716	0.0321114
-0.162647	0.0269914
-0.112692	0.0293171
-0.17265	0.0247959
-0.122653	0.0330833
-0.182634	0.0245963
-0.132641	0.0308097
-0.192648	0.0258025
-0.142675	0.0277117
-0.202632	0.0248913
-0.152663	0.0345412
-0.212635	0.0256637
-0.16265	0.0253339
-0.222669	0.0232859
-0.172638	0.029508
-0.232614	0.0257244
-0.18263	0.0372487
-0.242614	0.0250909
-0.192614	0.0340292
-0.25264	0.0229996
-0.202617	0.0347061
-0.262604	0.0208561
-0.212635	0.0340813
-0.272676	0.0242752
-0.222649	0.0299506
-0.282698	0.0269046
-0.232584	0.0324672
-0.292732	0.0240496
-0.242579	0.0366846
-0.302693	0.0250649
-0.252613	0.0357301
-0.3127	0.0235376
-0.262593	0.0291262
-0.322688	0.0273125
-0.272688	0.0359383
-0.332656	0.0241971
-0.282725	0.029751
-0.342644	0.0225917
-0.292671	0.0299592
-0.352712	0.0235116
-0.302727	0.029508
-0.36265	0.0242839
-0.312696	0.0282844
-0.372653	0.017975
-0.322695	0.0315386
-0.382687	0.0209342
-0.332649	0.0305146
-0.39264	0.0194503
-0.342667	0.0296989
-0.402666	0.0194329
-0.352609	0.0317903
-0.412646	0.0196933
-0.362684	0.0327449
-0.422565	0.0196759
-0.372672	0.034359
-0.432614	0.0191292
-0.382668	0.0333436
-0.442621	0.0174891
-0.392667	0.0298291
-0.452651	0.0162828
-0.402639	0.0316254
-0.462673	0.0175585
-0.41265	0.0342027
-0.472634	0.0152936
-0.42268	0.0324064
-0.482641	0.0145733
-0.432664	0.0325106
-0.492655	0.0115534
-0.442606	0.032363
-0.50262	0.0109806
-0.452708	0.0252298
-0.512646	0.00438542
-0.462631	0.033144
-0.5226	0.004316
-0.472611	0.0326928
-0.532622	0.00583463
-0.482668	0.0342288
-0.54264	0.00461105
-0.492644	0.0398868
-0.552612	0.00407302
-0.502597	0.0370751
-0.562596	-0.00102092
-0.512612	0.0289179
-0.572557	-0.00316437
-0.522546	0.0383508
-0.582549	-0.00344206
-0.532637	0.0328316
-0.59259	-0.00953396
-0.542579	0.0312349
-0.602555	-0.0097162
-0.552589	0.0327015
-0.612577	-0.00423175
-0.562558	0.0344631
-0.622538	-0.0064533
-0.572607	0.0345152
-0.63258	-0.00755539
-0.58258	0.0350966
-0.642556	-0.00589791
-0.592602	0.0366846
-0.652555	-0.00799797
-0.602574	0.0373789
-0.662531	-0.00240939
-0.612531	0.0352007
-0.672554	-0.00194078
-0.622573	0.0342201
-0.682618	-0.00442267
-0.632534	0.0408847
-0.692632	-0.00689587
-0.642521	0.0364243
-0.70265	-0.00181929
-0.652494	0.0349057
-0.712592	-0.00562022
-0.662516	0.038802
-0.722649	-0.00573303
-0.672542	0.0389669
-0.732602	-0.00606279
-0.682633	0.0359123
-0.74259	-0.00410158
-0.692651	0.0374917
-0.752616	-0.00677438
-0.702605	0.0368582
-0.762604	-0.00444002
-0.712592	0.0389496
-0.772637	-0.002878
-0.722653	0.0346887
-0.782598	-0.00697397
-0.732671	0.0378909
-0.792602	-0.0107923
-0.742644	0.0311915
-0.802563	-0.00365901
-0.752593	0.0364503
-0.812569	-0.00647933
-0.762638	0.0324672
-0.822592	-0.00996786
-0.772645	0.0336213
-0.832572	-0.00443134
-0.782576	0.0343763
-0.842582	-0.00706075
-0.792533	0.0327969
-0.852543	-0.00911742
-0.802597	0.0374656
-0.862569	-0.00616693
-0.81255	0.0308704
-0.872599	-0.00489127
-0.822584	0.0303671
-0.882545	-0.00425779
-0.832606	0.0292737
-0.892556	-0.0042144
-0.842601	0.0296208
-0.902563	-0.00550741
-0.852627	0.0298378
-0.912543	-0.00180193
-0.862581	0.0286662
-0.922546	-2.29603e-05
-0.872603	0.0277464
-0.932591	-0.00221847
-0.882591	0.0278939
-0.942536	-0.00219244
-0.892575	0.0280675
-0.952505	-0.00398009
-0.902551	0.0266356
-0.962535	-0.000422145
-0.912577	0.028241
-0.972507	-0.00133333
-0.922561	0.026436
-0.982583	0.00524454
-0.932572	0.0318684
-0.992498	0.00594745
-0.942521	0.0219582
-1.00258	-6.635e-05
-0.952631	0.0253426
-1.01257	-0.001854
-0.962531	0.0228086
-1.0225	-0.00320776
-0.972557	0.0252819
-1.03257	0.00461105
-0.98253	0.0331093
-1.04256	-0.00141143
-0.992575	0.027434
-1.05253	-0.001342
-1.00257	0.0276075
-1.06251	-0.00624503
-1.01255	0.0245182
-1.07249	-0.00454416
-1.0225	0.0317556
-1.08253	-0.00404084
-1.03252	0.0332742
-1.09261	-0.00364165
-1.04261	0.0303931
-1.10263	-0.00435324
-1.05251	0.0266964
-1.11258	-0.0011858
-1.06251	0.0358602
-1.12258	-0.00549005
-1.07251	0.0292563