File: VFSWV_data_prep/Example_data/CoPc_VFSWV_txt_data/CoPc_CNT_VFSWV_scans_51_50_C02.txt
Ewe/V	<I>/mA
-0.122353	0.00523936
-0.0723526	0.0239715
-0.132398	0.0106329
-0.0823938	0.0258297
-0.142359	0.0133312
-0.0923434	0.0251424
-0.152331	0.0112439
-0.102339	0.0272807
-0.162346	0.00956383
-0.112334	0.0224696
-0.172314	0.0070183
-0.122387	0.0229024
-0.182375	0.00770559
-0.13239	0.0214514
-0.192362	0.00681466
-0.14237	0.021986
-0.202461	0.00666193
-0.152358	0.0217823
-0.212414	0.0074765
-0.162349	0.0254733
-0.222452	0.000858137
-0.172352	0.0252442
-0.23242	0.00544008
-0.182336	0.0228515
-0.242443	0.00169816
-0.192366	0.0205859
-0.252446	0.00684012
-0.20243	0.0301062
-0.262433	0.00169816
-0.212426	0.0258297
-0.272444	0.00129088
-0.222509	0.0286298
-0.282409	0.00348003
-0.232459	0.0231569
-0.292397	0.00482915
-0.242423	0.0247861
-0.302419	0.000832682
-0.252465	0.022826
-0.312418	1.81148e-05
-0.262426	0.0217569
-0.322444	0.00241091
-0.272452	0.0212478
-0.332401	-0.00558204
-0.282428	0.0207641
-0.342427	-0.000160072
-0.29245	0.0236915
-0.352392	-0.00252741
-0.302476	0.0202041
-0.362429	-0.00301106
-0.312429	0.0230806
-0.372383	-0.00769482
-0.322421	0.0222914
-0.382412	-0.0114622
-0.332416	0.0278661
-0.392358	-0.00532748
-0.342389	0.0231315
-0.402384	-0.0120731
-0.352396	0.0237678
-0.412315	-0.0139823
-0.362414	0.0224442
-0.422409	-0.0117422
-0.372383	0.0286298
-0.432393	-0.0159678
-0.382359	0.0222914
-0.442332	-0.012124
-0.3924	0.0259824
-0.452396	-0.020117
-0.402388	0.0244806
-0.462406	-0.0287718
-0.412376	0.0312008
-0.472325	-0.0295609
-0.422364	0.0286043
-0.482367	-0.0363065
-0.432382	0.0337208
-0.492354	-0.0420594
-0.442393	0.0396774
-0.502354	-0.0467686
-0.452342	0.0358845
-0.512303	-0.0592671
-0.462383	0.0411029
-0.522375	-0.0679728
-0.472329	0.0479503
-0.532351	-0.0761439
-0.48237	0.0488922
-0.542305	-0.0845951
-0.492335	0.0559687
-0.552365	-0.0989009
-0.502369	0.0637325
-0.562307	-0.104247
-0.512353	0.07142
-0.572337	-0.101803
-0.522379	0.0770202
-0.582328	-0.114047
-0.532351	0.0827222
-0.592331	-0.108396
-0.542381	0.083384
-0.602334	-0.104628
-0.552308	0.0869477
-0.612414	-0.101014
-0.562315	0.0838931
-0.622417	-0.103101
-0.572318	0.0806857
-0.632462	-0.10053
-0.582302	0.0717764
-0.642442	-0.0962027
-0.592343	0.0693327
-0.652388	-0.0941662
-0.602296	0.0655144
-0.66244	-0.0999955
-0.612437	0.0586161
-0.672413	-0.0943444
-0.62239	0.0602706
-0.682397	-0.0973481
-0.63245	0.0491976
-0.692392	-0.0946753
-0.642419	0.0571651
-0.702357	-0.0972972
-0.652422	0.0471103
-0.712429	-0.0939117
-0.662425	0.0537032
-0.722398	-0.0940644
-0.672424	0.0487903
-0.732397	-0.0949299
-0.682412	0.0440302
-0.742362	-0.0960754
-0.692446	0.0440302
-0.752353	-0.0921298
-0.702434	0.0442338
-0.762337	-0.0926898
-0.712414	0.0475176
-0.772375	-0.0932753
-0.722394	0.0434956
-0.782366	-0.0942426
-0.732401	0.0483321
-0.792358	-0.0947517
-0.742396	0.046143
-0.802392	-0.0973481
-0.752445	0.0467285
-0.812353	-0.0935808
-0.762383	0.0417647
-0.822386	-0.095159
-0.772337	0.0438266
-0.83237	-0.0926135
-0.782351	0.0395246
-0.842385	-0.0924098
-0.792369	0.0400083
-0.852342	-0.0898898
-0.80235	0.0343318
-0.862337	-0.0887188
-0.812349	0.0335172
-0.872333	-0.087777
-0.822363	0.0366227
-0.882309	-0.0807259
-0.832355	0.0348409
-0.892373	-0.0777476
-0.842335	0.0307171
-0.902365	-0.0754821
-0.852365	0.0330335
-0.912356	-0.0764749
-0.862394	0.0317608
-0.922375	-0.0756348
-0.872359	0.0250915
-0.932347	-0.06586
-0.882385	0.0272807
-0.942304	-0.0662673
-0.892388	0.0257788
-0.952292	-0.0637218
-0.902349	0.026797
-0.962349	-0.0621945
-0.912333	0.0240988
-0.972317	-0.0642309
-0.922306	0.0259825
-0.982336	-0.0619145
-0.932404	0.0226224
-0.992346	-0.0636963
-0.942369	0.0220369
-1.0023	-0.0622963
-0.952265	0.0274843
-1.01231	-0.0585798
-0.962383	0.0249897
-1.02241	-0.0621945
-0.972306	0.0256006
-1.03241	-0.0609981
-0.982362	0.0242515
-1.04235	-0.0686092
-0.992327	0.0234115
-1.05244	-0.0671582
-1.00233	0.0250661
-1.06239	-0.0689401
-1.01243	0.0266188
-1.07239	-0.0677946
-1.0224	0.0240733
-1.08243	-0.0743875
-1.03244	0.0188295
-1.0924	-0.0729366
-1.0424	0.0216296
-1.10239	-0.0785622
-1.05244	0.0243279
-1.11237	-0.0796822
-1.06246	0.0238951
-1.12239	-0.0821259
-1.07245	0.0202041