File: VFSWV_data_prep/Example_data/CoPc_VFSWV_txt_data/CoPc_CNT_VFSWV_scans_55_54_C02.txt
Ewe/V	<I>/mA
-0.122539	0.0125323
-0.0725353	0.0352354
-0.132504	0.0241147
-0.0824582	0.0331672
-0.142538	0.0263102
-0.0924384	0.0329922
-0.152495	0.0247988
-0.102506	0.0296353
-0.162494	0.0196441
-0.112513	0.0284102
-0.172493	0.0211078
-0.122577	0.0285375
-0.182481	0.0172577
-0.132458	0.0297307
-0.192492	0.0174963
-0.142492	0.0308444
-0.202487	0.0195964
-0.152502	0.030908
-0.212463	0.0138371
-0.162486	0.0317035
-0.22244	0.0187532
-0.172478	0.0238283
-0.232477	0.0178622
-0.182462	0.028108
-0.242465	0.0164145
-0.19248	0.0255943
-0.252453	0.014203
-0.202521	0.0285216
-0.262429	0.011928
-0.212513	0.0229851
-0.272478	0.0105757
-0.22247	0.0233987
-0.282431	0.00763241
-0.232485	0.0268829
-0.292472	0.0113393
-0.24253	0.0197396
-0.302472	0.0154758
-0.252434	0.0243851
-0.312448	0.00796651
-0.262425	0.0221578
-0.322424	0.0096211
-0.272459	0.0264852
-0.332427	0.0114825
-0.28245	0.0265806
-0.342434	0.010337
-0.29245	0.0205668
-0.352407	0.00586645
-0.302453	0.0301444
-0.362444	0.0137894
-0.312433	0.0248624
-0.372386	0.0124848
-0.322447	0.024051
-0.382397	0.00935064
-0.332412	0.0234783
-0.392411	0.00495961
-0.342373	0.022651
-0.402395	0.00354366
-0.352464	0.0211396
-0.412417	0.00219135
-0.362421	0.0228419
-0.422401	0.00222317
-0.372421	0.024592
-0.432523	0.00112542
-0.382462	0.0299057
-0.442499	0.00553235
-0.39243	0.027042
-0.452533	-0.00479292
-0.402407	0.0195168
-0.462509	-0.0087703
-0.41244	0.022476
-0.472497	-0.00919986
-0.422397	0.0240829
-0.482519	-0.0125409
-0.432523	0.0259443
-0.492484	-0.0146727
-0.442518	0.0277898
-0.502487	-0.0127
-0.452494	0.028283
-0.512475	-0.0195251
-0.462482	0.0321331
-0.522432	-0.0258571
-0.472474	0.0289989
-0.532473	-0.0261117
-0.482496	0.027917
-0.542487	-0.0295163
-0.492522	0.0341377
-0.552468	-0.0353869
-0.502525	0.0368741
-0.56244	-0.0355778
-0.512505	0.0422993
-0.572413	-0.0346233
-0.522481	0.0398651
-0.582435	-0.0369938
-0.532427	0.0427765
-0.592461	-0.0397461
-0.542476	0.042697
-0.602502	-0.0470486
-0.552452	0.0399128
-0.612459	-0.0433258
-0.562471	0.0440175
-0.62239	-0.0454736
-0.5725	0.0413447
-0.632461	-0.0461895
-0.582458	0.0412969
-0.642487	-0.0448849
-0.592434	0.0405015
-0.652441	-0.0474145
-0.602498	0.0395469
-0.662398	-0.045919
-0.612444	0.037415
-0.672474	-0.039412
-0.622466	0.042172
-0.68237	-0.0467941
-0.632419	0.0367468
-0.692445	-0.0475895
-0.642411	0.0356491
-0.702418	-0.0485282
-0.652391	0.0359354
-0.712379	-0.0418303
-0.662413	0.0423629
-0.722367	-0.0435008
-0.672416	0.0322285
-0.732446	-0.0490055
-0.682438	0.0309717
-0.742377	-0.0501032
-0.69248	0.0355536
-0.752364	-0.0508987
-0.702448	0.0345672
-0.762409	-0.0480827
-0.712467	0.0352831
-0.772424	-0.0515669
-0.722405	0.0352354
-0.782469	-0.0506601
-0.732423	0.0348377
-0.792342	-0.0496896
-0.742434	0.0336922
-0.802345	-0.0489737
-0.75241	0.0335331
-0.812386	-0.0451554
-0.762448	0.0312262
-0.822348	-0.0461099
-0.77242	0.0325149
-0.832515	-0.0457281
-0.782385	0.031083
-0.842495	-0.0478123
-0.792361	0.0300807
-0.852483	-0.0451236
-0.80238	0.0313694
-0.86252	-0.0454417
-0.812386	0.0278693
-0.872458	-0.0436758
-0.822378	0.0309399
-0.882484	-0.0418621
-0.832499	0.0255306
-0.89246	-0.0334937
-0.842487	0.0222373
-0.902517	-0.0393961
-0.852494	0.0203441
-0.912432	-0.0407803
-0.862493	0.0220942
-0.922428	-0.0386484
-0.872515	0.0254511
-0.932503	-0.0352915
-0.882476	0.0237965
-0.942479	-0.0302482
-0.892449	0.0247829
-0.952513	-0.0286413
-0.902486	0.0261352
-0.962466	-0.0237889
-0.912493	0.0254988
-0.972389	-0.0282913
-0.922504	0.0219032
-0.982453	-0.029564
-0.932457	0.0231601
-0.992487	-0.0363574
-0.942495	0.016144
-1.00244	-0.0319982
-0.95246	0.0166531
-1.01241	-0.0338119
-0.962524	0.0171304
-1.02242	-0.0308368
-0.972424	0.0153963
-1.0325	-0.0335573
-0.982503	0.0170827
-1.04241	-0.0310118
-0.992418	0.0198827
-1.05243	-0.0349415
-1.00244	0.0174645
-1.06244	-0.0324755
-1.01251	0.0141394
-1.07244	-0.0379006
-1.02248	0.0199782
-1.08236	-0.0379484
-1.03245	0.0186736
-1.09241	-0.0389348
-1.04248	0.0171145
-1.10248	-0.0404939
-1.05243	0.0170986
-1.11246	-0.0442644
-1.06241	0.0172895
-1.12239	-0.0472395
-1.07248	0.0169395