File: VFSWV_data_prep/Example_data/CoPc_VFSWV_txt_data/CoPc_CNT_VFSWV_scans_74_73_C02.txt
Ewe/V	<I>/mA
-0.122308	0.0129141
-0.0723504	0.0114088
-0.132422	0.0104337
-0.082342	0.00971285
-0.142395	0.00942384
-0.0923374	0.0173193
-0.152447	0.0121524
-0.102287	0.00967944
-0.162401	0.00944191
-0.112336	0.0128664
-0.172411	0.0122519
-0.122327	0.0069845
-0.182418	0.00374455
-0.132403	0.00370088
-0.192418	0.00422589
-0.142444	0.00347859
-0.202398	-0.000156704
-0.152451	0.00058908
-0.21237	0.000754606
-0.162389	0.00343167
-0.222408	0.00340953
-0.172377	0.00563805
-0.23238	0.00665568
-0.182384	0.00406423
-0.242349	0.00247324
-0.192379	0.0102392
-0.252375	0.00624329
-0.202421	0.00382406
-0.262401	0.00301298
-0.212424	0.00338232
-0.272404	0.00408931
-0.222377	0.00490902
-0.282384	0.0072858
-0.232388	0.00918266
-0.292368	0.00816472
-0.242383	0.0071087
-0.302371	0.00727605
-0.252363	0.012951
-0.312408	0.00896351
-0.262401	0.00783905
-0.322377	0.004613
-0.272377	0.0072985
-0.33233	0.00559377
-0.282338	0.0102682
-0.342352	0.0084974
-0.292394	0.00731677
-0.352367	0.0110474
-0.302356	0.0121278
-0.36232	0.0133953
-0.312324	0.0126276
-0.372396	0.0111197
-0.322308	0.0157099
-0.382357	0.0127142
-0.332311	0.0157071
-0.392341	0.0153873
-0.342368	0.0153725
-0.40231	0.0158139
-0.352359	0.0180258
-0.412343	0.0172943
-0.362385	0.0179863
-0.42235	0.0189092
-0.372354	0.0174447
-0.432365	0.0154801
-0.382372	0.018629
-0.442379	0.0203351
-0.392379	0.0181925
-0.452317	0.0159703
-0.402359	0.016241
-0.462316	0.0190309
-0.412332	0.018976
-0.472365	0.0223999
-0.422342	0.0225536
-0.482365	0.0190367
-0.432315	0.0235711
-0.492329	0.0231121
-0.442329	0.0265219
-0.502321	0.0257941
-0.452313	0.0290694
-0.512305	0.0252049
-0.462316	0.0234249
-0.522331	0.0181668
-0.47227	0.0219739
-0.532353	0.0164776
-0.482349	0.0207142
-0.542268	0.0178049
-0.492337	0.0213573
-0.552439	0.0150557
-0.502325	0.016503
-0.562393	0.0123909
-0.512286	0.0150765
-0.572438	0.0112638
-0.52227	0.0135891
-0.582418	0.0137654
-0.53233	0.0125116
-0.592471	0.00849953
-0.542451	0.0175302
-0.602363	0.00705975
-0.552416	0.00850958
-0.612389	0.00716983
-0.562416	0.0101795
-0.622403	0.00379349
-0.572354	0.00997282
-0.632433	0.00503261
-0.582487	0.00903104
-0.642383	0.00646446
-0.592371	0.0122341
-0.652401	0.00552604
-0.60242	0.0114749
-0.662393	0.00757735
-0.612408	0.0136483
-0.672365	0.00807535
-0.622453	0.012757
-0.68236	0.00657231
-0.632414	0.0116072
-0.69239	0.00662187
-0.642379	0.00953828
-0.70234	0.00975713
-0.652355	0.0121006
-0.712431	0.0132682
-0.66237	0.0136603
-0.722388	0.00878133
-0.672373	0.0148531
-0.732299	0.00872599
-0.682357	0.0129025
-0.742375	0.0116225
-0.692367	0.0140598
-0.752374	0.00958287
-0.702374	0.0140742
-0.76237	0.0105929
-0.712316	0.0220594
-0.772338	0.0122418
-0.722342	0.0118273
-0.782341	0.00575311
-0.732341	0.0109009
-0.792295	0.00496264
-0.742314	0.00877514
-0.80226	0.0064342
-0.752298	0.0102318
-0.812289	0.0069645
-0.762324	0.0105095
-0.822315	0.00397435
-0.772304	0.00845769
-0.832318	0.00811313
-0.782273	0.00708148
-0.842299	0.00390246
-0.792295	0.0107477
-0.852309	0.00615971
-0.802363	0.0125586
-0.862285	0.00928583
-0.81232	0.0119539
-0.872323	0.00870111
-0.822327	0.0132038
-0.882295	0.0130011
-0.832311	0.0140977
-0.892321	0.00978668
-0.842302	0.0145857
-0.902248	0.0147715
-0.852313	0.0126824
-0.912331	0.0141777
-0.862259	0.0178157
-0.922346	0.0102753
-0.872323	0.0151964
-0.932345	0.0131394
-0.88233	0.0155111
-0.94231	0.0126537
-0.892302	0.0172498
-0.952366	0.0104671
-0.902305	0.0122294
-0.962388	0.0113033
-0.912301	0.0174595
-0.972426	0.0140204
-0.922285	0.0151212
-0.982352	0.0157263
-0.932292	0.0190129
-0.992409	0.01537
-0.942337	0.0153696
-1.00235	0.0106458
-0.952389	0.0149895
-1.01236	0.0109176
-0.962377	0.0156914
-1.02236	0.0143884
-0.972357	0.0145889
-1.03238	0.0106015
-0.982364	0.0145648
-1.04241	0.00702705
-0.99239	0.00914092
-1.05235	0.00892533
-1.00243	0.00901297
-1.06239	0.00444057
-1.01241	0.0093494
-1.07236	0.00455756
-1.02241	0.00584105
-1.08242	0.00419705
-1.03244	0.00850603
-1.0924	0.00748332
-1.04237	0.0125293
-1.10237	0.00619962
-1.05239	0.0079933
-1.11239	0.00390418
-1.06235	0.00963039
-1.12238	0.00687229
-1.07233	0.015034