File: VFSWV_data_prep/Example_data/CoPc_VFSWV_txt_data/CoPc_CNT_VFSWV_scans_31_30_C02.txt
Ewe/V	<I>/mA
-0.122322	-0.000869891
-0.072341	0.0436738
-0.132336	-0.0160441
-0.0823592	0.0435211
-0.142332	-0.0145168
-0.0923699	0.041001
-0.152319	-0.0170369
-0.102342	0.0471103
-0.162448	-0.0198624
-0.112361	0.0413065
-0.172383	-0.021237
-0.122341	0.0403901
-0.182386	-0.0190988
-0.132348	0.0410774
-0.192412	-0.0271172
-0.142313	0.038481
-0.202384	-0.0249789
-0.152361	0.0398555
-0.212372	-0.0309354
-0.162406	0.0389392
-0.222432	-0.0285681
-0.172448	0.0358845
-0.232412	-0.0287972
-0.182409	0.0364191
-0.242351	-0.0371211
-0.192412	0.0374882
-0.252415	-0.0335319
-0.202384	0.0458884
-0.262395	-0.0400993
-0.21238	0.0364955
-0.272371	-0.0432303
-0.222406	0.0394737
-0.282363	-0.0395648
-0.232451	0.0443611
-0.2924	-0.0438412
-0.242408	0.0380991
-0.302411	-0.0465904
-0.252346	0.044972
-0.312399	-0.0510196
-0.26238	0.0419938
-0.322371	-0.0541506
-0.272386	0.0447429
-0.332344	-0.0559834
-0.282393	0.0477976
-0.342331	-0.0625508
-0.292377	0.0462703
-0.352342	-0.0588089
-0.302388	0.0426811
-0.362372	-0.0694238
-0.312406	0.0466521
-0.372367	-0.0787404
-0.322325	0.045583
-0.382298	-0.0835514
-0.332328	0.0493249
-0.392366	-0.0908061
-0.342366	0.0542887
-0.402353	-0.100199
-0.352315	0.0563505
-0.412368	-0.129371
-0.36238	0.0661253
-0.422314	-0.159077
-0.372329	0.0725401
-0.432328	-0.205049
-0.382344	0.0803294
-0.442328	-0.263927
-0.392335	0.0955261
-0.452311	-0.354573
-0.402327	0.113625
-0.462315	-0.473169
-0.412364	0.162117
-0.472287	-0.618569
-0.422363	0.231228
-0.482359	-0.795738
-0.432298	0.326456
-0.492347	-0.983903
-0.442381	0.459943
-0.502346	-1.19635
-0.452338	0.617638
-0.512314	-1.41453
-0.462318	0.813058
-0.522302	-1.62782
-0.472348	1.00168
-0.532298	-1.82591
-0.482336	1.1832
-0.542301	-1.9875
-0.492339	1.34853
-0.552296	-2.12114
-0.502315	1.47706
-0.562318	-2.2082
-0.512276	1.57129
-0.572272	-2.2463
-0.522295	1.62544
-0.582397	-2.21851
-0.532298	1.65255
-0.592453	-2.15474
-0.542285	1.62032
-0.602391	-2.02484
-0.552288	1.56075
-0.612333	-1.85875
-0.562257	1.47248
-0.622405	-1.67509
-0.572283	1.34915
-0.632382	-1.45836
-0.582382	1.21146
-0.642388	-1.25004
-0.592388	1.06904
-0.652395	-1.07768
-0.602403	0.911646
-0.662368	-0.928461
-0.61241	0.782665
-0.672401	-0.803756
-0.62239	0.66025
-0.682362	-0.711201
-0.632404	0.548604
-0.692331	-0.648734
-0.6424	0.454216
-0.702311	-0.605587
-0.652407	0.387701
-0.712307	-0.569924
-0.662326	0.330809
-0.722344	-0.546786
-0.67234	0.291328
-0.732343	-0.533804
-0.682397	0.255665
-0.742312	-0.524945
-0.692346	0.237108
-0.752319	-0.522425
-0.702361	0.220613
-0.762314	-0.506083
-0.712333	0.215191
-0.772352	-0.509137
-0.722317	0.20282
-0.782309	-0.508756
-0.732316	0.188616
-0.792312	-0.510207
-0.742342	0.17907
-0.80238	-0.51349
-0.752319	0.180368
-0.812253	-0.511657
-0.762326	0.172197
-0.822344	-0.513414
-0.772317	0.17319
-0.832305	-0.503715
-0.782378	0.168074
-0.842293	-0.494093
-0.792342	0.164943
-0.852307	-0.489511
-0.802342	0.170059
-0.862333	-0.470114
-0.812303	0.151731
-0.872336	-0.455834
-0.822271	0.153029
-0.882362	-0.446594
-0.832309	0.139513
-0.892304	-0.436208
-0.8423	0.12844
-0.902322	-0.418949
-0.852353	0.126607
-0.912318	-0.402455
-0.86236	0.112479
-0.922287	-0.38237
-0.872386	0.105759
-0.932286	-0.374657
-0.882313	0.100948
-0.942331	-0.366944
-0.892354	0.0991153
-0.952326	-0.355948
-0.90233	0.0916315
-0.962268	-0.350144
-0.912303	0.088195
-0.972256	-0.340064
-0.922294	0.0855222
-0.98227	-0.337238
-0.93232	0.0799475
-0.992357	-0.331893
-0.942304	0.0848349
-1.00239	-0.334718
-0.952265	0.0831549
-1.01243	-0.334565
-0.962291	0.084224
-1.02239	-0.336933
-0.972241	0.0882714
-1.03243	-0.3477
-0.98227	0.089646
-1.04243	-0.344493
-0.992403	0.0888823
-1.05236	-0.346249
-1.00238	0.0925479
-1.06235	-0.35022
-1.0124	0.0973589
-1.07234	-0.358926
-1.02238	0.0994971
-1.08242	-0.372137
-1.03234	0.100948
-1.09232	-0.371985
-1.04241	0.106065
-1.10237	-0.382065
-1.0524	0.109501
-1.11231	-0.404211
-1.06236	0.110188
-1.12237	-0.417193
-1.07242	0.114388