File: VFSWV_data_prep/Example_data/CoPc_VFSWV_txt_data/CoPc_CNT_VFSWV_scans_25_24_C02.txt
Ewe/V	<I>/mA
-0.122299	-0.0208777
-0.0723257	0.0653044
-0.132294	-0.0354983
-0.0823439	0.0630134
-0.142297	-0.0396984
-0.092305	0.0567133
-0.15227	-0.0352119
-0.102297	0.0590042
-0.16241	-0.0442803
-0.112288	0.0593861
-0.172387	-0.0486714
-0.122295	0.0589088
-0.182428	-0.0547806
-0.132271	0.0577633
-0.192377	-0.0554488
-0.142305	0.0600543
-0.202434	-0.0553534
-0.152384	0.0563314
-0.21241	-0.0644218
-0.16241	0.0485994
-0.22239	-0.0706265
-0.172379	0.0548996
-0.232405	-0.0709129
-0.182336	0.0520359
-0.242354	-0.0757812
-0.192404	0.0529904
-0.25238	-0.0764494
-0.202392	0.0534677
-0.262353	-0.0757812
-0.212364	0.0567133
-0.272352	-0.0844678
-0.222341	0.0586224
-0.282397	-0.0887634
-0.232405	0.0569996
-0.292343	-0.0893361
-0.242377	0.0567133
-0.302392	-0.0868542
-0.252384	0.0591952
-0.312334	-0.101364
-0.262403	0.0667363
-0.322367	-0.103082
-0.272371	0.0632044
-0.332332	-0.116541
-0.282367	0.0663544
-0.342316	-0.121123
-0.292354	0.0638726
-0.352346	-0.137637
-0.302338	0.0746592
-0.362345	-0.141265
-0.312341	0.0808639
-0.37231	-0.159306
-0.322352	0.081914
-0.382321	-0.188611
-0.332279	0.0869732
-0.392305	-0.216771
-0.342301	0.0999553
-0.402327	-0.253809
-0.352319	0.110933
-0.412265	-0.323397
-0.362292	0.117615
-0.422302	-0.409976
-0.372344	0.155989
-0.43229	-0.52653
-0.382351	0.197608
-0.442278	-0.665802
-0.392343	0.263951
-0.452331	-0.857479
-0.402304	0.354826
-0.462299	-1.07741
-0.412299	0.494002
-0.472318	-1.33877
-0.422276	0.663439
-0.482305	-1.61264
-0.432321	0.879935
-0.492347	-1.92144
-0.442316	1.13471
-0.502292	-2.23111
-0.452266	1.39254
-0.512257	-2.53017
-0.462311	1.64397
-0.522295	-2.80719
-0.472279	1.88281
-0.532313	-3.05328
-0.482309	2.07191
-0.542282	-3.27512
-0.492293	2.2401
-0.552231	-3.44914
-0.5023	2.35255
-0.562295	-3.55997
-0.51233	2.43283
-0.572352	-3.62974
-0.52231	2.47808
-0.582359	-3.63509
-0.532271	2.48801
-0.592377	-3.576
-0.542308	2.45288
-0.602395	-3.44876
-0.552304	2.3894
-0.612288	-3.27149
-0.562257	2.29184
-0.622375	-3.03734
-0.572333	2.15839
-0.632374	-2.77139
-0.582343	2.00194
-0.64235	-2.48101
-0.5924	1.82391
-0.65233	-2.19312
-0.602327	1.64397
-0.66236	-1.92421
-0.612375	1.44762
-0.672352	-1.68605
-0.62234	1.26291
-0.682343	-1.48807
-0.632336	1.09366
-0.692312	-1.32111
-0.64232	0.942555
-0.702349	-1.19339
-0.652326	0.80987
-0.71233	-1.10805
-0.662307	0.698567
-0.722294	-1.02529
-0.672394	0.612465
-0.732332	-0.981574
-0.682305	0.550608
-0.742304	-0.943964
-0.692301	0.488084
-0.752326	-0.925349
-0.702281	0.440833
-0.762299	-0.905399
-0.712337	0.415918
-0.772298	-0.897285
-0.722367	0.394918
-0.782339	-0.890508
-0.732305	0.369335
-0.792335	-0.88688
-0.742308	0.363131
-0.802231	-0.885353
-0.752319	0.34633
-0.812303	-0.882585
-0.762303	0.348335
-0.822298	-0.880294
-0.772287	0.332393
-0.832301	-0.870748
-0.782309	0.328193
-0.842274	-0.861966
-0.792281	0.317502
-0.852315	-0.842779
-0.802273	0.30032
-0.86228	-0.824069
-0.812291	0.30137
-0.872351	-0.804978
-0.822348	0.282278
-0.882316	-0.786937
-0.832294	0.27216
-0.892312	-0.760113
-0.842274	0.259082
-0.902265	-0.740258
-0.852323	0.238273
-0.912261	-0.71458
-0.862287	0.227772
-0.922287	-0.692625
-0.872352	0.227391
-0.932248	-0.684416
-0.882313	0.214504
-0.942266	-0.655206
-0.892277	0.203908
-0.952257	-0.65826
-0.902322	0.196749
-0.962234	-0.629432
-0.912299	0.189112
-0.972248	-0.624469
-0.922267	0.182239
-0.98237	-0.619505
-0.932305	0.186153
-0.992396	-0.613205
-0.942247	0.184244
-1.00236	-0.609386
-0.952219	0.196653
-1.01236	-0.607286
-0.962245	0.196176
-1.02231	-0.618359
-0.97226	0.199517
-1.03236	-0.6154
-0.982312	0.201044
-1.04236	-0.622655
-0.992327	0.204576
-1.05233	-0.626187
-1.00237	0.219945
-1.06234	-0.637737
-1.01232	0.211258
-1.07235	-0.651483
-1.02236	0.226531
-1.08237	-0.667615
-1.03235	0.229682
-1.09237	-0.681457
-1.04234	0.233977
-1.10232	-0.698257
-1.05236	0.244191
-1.11229	-0.73014
-1.06236	0.250205
-1.12236	-0.742358
-1.07235	0.262805