File: VFSWV_data_prep/Example_data/CoPc_VFSWV_txt_data/CoPc_CNT_VFSWV_scans_57_56_C02.txt
Ewe/V	<I>/mA
-0.122566	0.0076067
-0.0725507	0.0211275
-0.132534	0.0156371
-0.0825423	0.0216147
-0.142499	0.0151104
-0.0925224	0.0149261
-0.152495	0.0137806
-0.102522	0.021799
-0.162502	0.0154133
-0.112551	0.0207457
-0.172566	0.010173
-0.122524	0.0151104
-0.182512	0.00894851
-0.132489	0.0178754
-0.192469	0.00804002
-0.142476	0.0200479
-0.202453	0.00814535
-0.152529	0.0164271
-0.212479	0.0107392
-0.16249	0.0189024
-0.222466	0.0115686
-0.172547	0.0156503
-0.2325	0.00900118
-0.1825	0.0162822
-0.242526	0.00696037
-0.19248	0.021325
-0.252499	0.0101072
-0.202495	0.0167299
-0.26244	0.00959367
-0.212452	0.0176121
-0.272485	0.01278
-0.222463	0.0181387
-0.282454	0.00747386
-0.232466	0.0208774
-0.292438	0.0136753
-0.242526	0.022431
-0.302506	0.0102125
-0.252472	0.0205087
-0.312448	0.00761869
-0.26249	0.0192842
-0.322478	0.00586755
-0.272505	0.0194685
-0.332431	0.00420857
-0.282511	0.0156634
-0.342461	0.00802686
-0.292457	0.0180597
-0.35243	0.00532772
-0.302476	0.0170986
-0.362494	0.0021546
-0.312456	0.0164007
-0.372405	0.0042744
-0.322497	0.0162296
-0.38245	-0.000952695
-0.332496	0.0188629
-0.392446	0.00472207
-0.342472	0.0205482
-0.402445	0.00595972
-0.352468	0.0169142
-0.412471	0.0048274
-0.362475	0.0190604
-0.422413	-0.00184802
-0.372531	0.0163744
-0.432523	-0.00457348
-0.382446	0.0176647
-0.442526	-0.00459981
-0.392427	0.0207325
-0.452498	-0.00191385
-0.402437	0.0224178
-0.46249	-0.00355966
-0.412417	0.0200479
-0.472481	-0.00254584
-0.422455	0.0223915
-0.482523	-0.00707512
-0.432511	0.0246166
-0.492488	-0.00970842
-0.442526	0.0246166
-0.502498	-0.0116307
-0.452517	0.025512
-0.512528	-0.0111436
-0.462498	0.0264468
-0.522527	-0.0163707
-0.472585	0.0258411
-0.532526	-0.0213476
-0.482538	0.0255383
-0.542499	-0.0189908
-0.492469	0.0322927
-0.552487	-0.0230592
-0.502487	0.0309234
-0.562494	-0.0237571
-0.512478	0.0308971
-0.5725	-0.027391
-0.522497	0.0317529
-0.582477	-0.0302613
-0.5325	0.0317792
-0.592487	-0.0306695
-0.542522	0.0322795
-0.602464	-0.030077
-0.552475	0.0324902
-0.612444	-0.0341718
-0.562452	0.0343335
-0.622489	-0.040676
-0.572462	0.0323849
-0.632484	-0.040202
-0.58245	0.0276186
-0.642461	-0.0400572
-0.592438	0.0284218
-0.652445	-0.0420585
-0.602452	0.0342677
-0.662364	-0.0374502
-0.612436	0.0354527
-0.672504	-0.0362257
-0.622458	0.0314106
-0.682492	-0.0386089
-0.632488	0.0288036
-0.692399	-0.0403205
-0.642426	0.0278161
-0.702441	-0.0393594
-0.652483	0.0275133
-0.712455	-0.0375161
-0.662455	0.0274079
-0.722405	-0.0389907
-0.672466	0.025354
-0.732389	-0.0407155
-0.68245	0.0261571
-0.742415	-0.0418083
-0.69243	0.0272894
-0.752361	-0.0426773
-0.702406	0.0281453
-0.762402	-0.0399387
-0.712432	0.0291986
-0.772435	-0.0412027
-0.722397	0.0314501
-0.78245	-0.0395832
-0.7324	0.025038
-0.79243	-0.0363311
-0.742415	0.0294751
-0.802414	-0.0380296
-0.752383	0.0297647
-0.812447	-0.0360414
-0.76244	0.0303441
-0.822447	-0.031657
-0.772348	0.0264863
-0.832496	-0.0364364
-0.782419	0.0271446
-0.842491	-0.0364101
-0.792449	0.036585
-0.852452	-0.027865
-0.802406	0.0339912
-0.862531	-0.0319598
-0.812348	0.0233658
-0.872519	-0.0324338
-0.822409	0.02646
-0.88253	-0.033237
-0.83248	0.026065
-0.892438	-0.0252449
-0.84251	0.0293566
-0.902483	-0.031104
-0.852502	0.0252486
-0.912543	-0.0181613
-0.862467	0.0206535
-0.922466	-0.0277202
-0.872481	0.0203112
-0.932526	-0.0235859
-0.882522	0.0189287
-0.942426	-0.0255609
-0.892487	0.0179544
-0.952437	-0.0242311
-0.902505	0.0188497
-0.962455	-0.0218743
-0.91247	0.0165719
-0.972416	-0.0264825
-0.922439	0.0164534
-0.982526	-0.0265747
-0.932427	0.0175331
-0.992498	-0.0257452
-0.942502	0.019982
-1.00246	-0.0222166
-0.952448	0.0211275
-1.01248	-0.0195701
-0.962432	0.0197845
-1.02242	-0.0233489
-0.972489	0.02014
-1.03246	-0.0244681
-0.98245	0.019666
-1.04246	-0.0266274
-0.992456	0.0187312
-1.0525	-0.0267854
-1.00248	0.0170591
-1.06248	-0.0288657
-1.01248	0.0190209
-1.0724	-0.027549
-1.02247	0.0192184
-1.08241	-0.0286023
-1.03243	0.0224837
-1.09242	-0.030709
-1.04243	0.0238135
-1.10241	-0.030551
-1.05244	0.0197055
-1.11245	-0.0324206
-1.06238	0.0209695
-1.1224	-0.032289
-1.07247	0.0166772