File: VFSWV_data_prep/Example_data/CoPc_VFSWV_txt_data/CoPc_CNT_VFSWV_scans_16_15_C02.txt
Ewe/V	<I>/mA
-0.122442	-0.0403128
-0.072476	0.191085
-0.132433	-0.152306
-0.0824675	0.174921
-0.142383	-0.160833
-0.0924859	0.170212
-0.152435	-0.163888
-0.102432	0.166648
-0.162439	-0.163761
-0.112435	0.168048
-0.172361	-0.174197
-0.122438	0.16423
-0.182437	-0.190871
-0.132429	0.171103
-0.192425	-0.191889
-0.142379	0.181285
-0.202386	-0.194816
-0.152401	0.178612
-0.212404	-0.202962
-0.162408	0.181158
-0.222407	-0.220526
-0.172411	0.184849
-0.232418	-0.218999
-0.182425	0.187649
-0.242375	-0.226635
-0.192425	0.190576
-0.252351	-0.234908
-0.202363	0.181794
-0.262423	-0.243945
-0.2124	0.195922
-0.272373	-0.249672
-0.222415	0.199358
-0.282425	-0.257945
-0.232376	0.194649
-0.292364	-0.2694
-0.242421	0.201649
-0.302386	-0.28951
-0.25237	0.202285
-0.312385	-0.297655
-0.262366	0.208395
-0.322376	-0.319929
-0.272357	0.218831
-0.332353	-0.333547
-0.282368	0.228122
-0.342348	-0.36753
-0.292402	0.234359
-0.35234	-0.392858
-0.302344	0.246705
-0.362366	-0.444914
-0.312389	0.261723
-0.372338	-0.506643
-0.322369	0.280051
-0.382341	-0.57639
-0.33236	0.315816
-0.392356	-0.676302
-0.342348	0.361126
-0.402397	-0.798614
-0.352313	0.419418
-0.412324	-0.943709
-0.362366	0.496166
-0.422346	-1.15244
-0.372315	0.607023
-0.432433	-1.38052
-0.382341	0.749827
-0.442432	-1.65429
-0.392325	0.939851
-0.45245	-1.97159
-0.40234	1.18117
-0.462442	-2.32224
-0.412347	1.44234
-0.472418	-2.68943
-0.422369	1.73685
-0.482402	-3.06528
-0.432429	2.02908
-0.492356	-3.44036
-0.442398	2.29891
-0.502427	-3.82117
-0.45237	2.54913
-0.5124	-4.15489
-0.46243	2.75315
-0.522395	-4.46379
-0.472422	2.91378
-0.532391	-4.75219
-0.482425	3.03354
-0.542398	-4.98995
-0.492447	3.12124
-0.552355	-5.17017
-0.502424	3.17546
-0.562404	-5.31743
-0.512362	3.20231
-0.572388	-5.41823
-0.522376	3.21733
-0.582345	-5.45107
-0.532387	3.20868
-0.592409	-5.44165
-0.542401	3.17317
-0.60237	-5.35714
-0.552401	3.12989
-0.612392	-5.2095
-0.562407	3.06625
-0.622437	-5.00878
-0.57241	2.98531
-0.632333	-4.74214
-0.582402	2.87878
-0.642333	-4.44482
-0.592386	2.74488
-0.652397	-4.11568
-0.602404	2.58171
-0.662377	-3.777
-0.612343	2.40404
-0.672407	-3.44201
-0.622384	2.20752
-0.682375	-3.11924
-0.632371	2.01979
-0.692397	-2.83974
-0.64234	1.81666
-0.702332	-2.59728
-0.652374	1.64025
-0.712331	-2.38346
-0.662362	1.48192
-0.722357	-2.22627
-0.672406	1.33428
-0.732356	-2.0897
-0.68236	1.21769
-0.742329	-1.99628
-0.692378	1.11435
-0.752328	-1.92259
-0.702332	1.02983
-0.762327	-1.86646
-0.712339	0.967979
-0.772284	-1.82777
-0.722334	0.91185
-0.78236	-1.80295
-0.732291	0.87074
-0.792344	-1.7915
-0.74231	0.84223
-0.802339	-1.7789
-0.752332	0.814356
-0.812339	-1.76031
-0.7623	0.783683
-0.822349	-1.75879
-0.772322	0.772482
-0.832291	-1.7388
-0.782322	0.765355
-0.842477	-1.72938
-0.79234	0.747536
-0.852419	-1.7094
-0.802297	0.729718
-0.862419	-1.69387
-0.812358	0.719154
-0.872425	-1.65633
-0.822307	0.684916
-0.88239	-1.63507
-0.832348	0.677662
-0.892432	-1.59384
-0.842458	0.658188
-0.902416	-1.55871
-0.852465	0.63057
-0.912373	-1.52052
-0.862464	0.618987
-0.922364	-1.48743
-0.872433	0.591878
-0.932375	-1.4532
-0.882436	0.584114
-0.942393	-1.42698
-0.892428	0.569986
-0.952343	-1.41323
-0.902431	0.562859
-0.962426	-1.39376
-0.912438	0.559677
-0.972368	-1.38587
-0.922406	0.555477
-0.982425	-1.37556
-0.932463	0.554713
-0.992367	-1.3627
-0.94242	0.573041
-1.00241	-1.36932
-0.95245	0.572277
-1.01243	-1.37963
-0.962388	0.584114
-1.02239	-1.37988
-0.972402	0.593023
-1.03237	-1.38548
-0.982436	0.610969
-1.04239	-1.39134
-0.992332	0.622424
-1.05235	-1.40814
-1.00238	0.635661
-1.0624	-1.4243
-1.01241	0.636551
-1.07231	-1.45141
-1.02237	0.649916
-1.08237	-1.47
-1.03242	0.656025
-1.09237	-1.49634
-1.04236	0.671171
-1.10235	-1.53338
-1.05236	0.689753
-1.11237	-1.56685
-1.06228	0.713808
-1.12242	-1.60835
-1.07239	0.732772