File: VFSWV_data_prep/Example_data/CoPc_VFSWV_txt_data/CoPc_CNT_VFSWV_scans_61_60_C02.txt
Ewe/V	<I>/mA
-0.122599	0.0179924
-0.0726146	0.0272219
-0.132553	0.0216707
-0.0826253	0.0264289
-0.142605	0.023903
-0.0925825	0.0338794
-0.152608	0.0263995
-0.102616	0.0264583
-0.162642	0.0166482
-0.112627	0.0259492
-0.172622	0.0162174
-0.122614	0.0248624
-0.182629	0.0192623
-0.132599	0.0271926
-0.192582	0.0183028
-0.142594	0.0250386
-0.202555	0.0180678
-0.152589	0.0237169
-0.212558	0.0185574
-0.162608	0.0245687
-0.222614	0.0196833
-0.172603	0.0233938
-0.232583	0.0178133
-0.182606	0.0283478
-0.242556	0.0194874
-0.192598	0.0252442
-0.252562	0.0190077
-0.202605	0.0239715
-0.2626	0.0215239
-0.212608	0.026096
-0.272569	0.0192427
-0.222572	0.0212106
-0.282564	0.019135
-0.232549	0.0251561
-0.292533	0.0222777
-0.242537	0.0271436
-0.302543	0.0169517
-0.252528	0.0247547
-0.312596	0.0147489
-0.262566	0.0205448
-0.322614	0.0116942
-0.272603	0.0227868
-0.332518	0.0124481
-0.282549	0.0236092
-0.342552	0.0110676
-0.29254	0.0216707
-0.352524	0.0129083
-0.302551	0.0228358
-0.362546	0.0114397
-0.31255	0.0174021
-0.372511	0.0150719
-0.32258	0.0192427
-0.38248	0.00950117
-0.332522	0.0201826
-0.392494	0.0106467
-0.342498	0.0201728
-0.402509	0.00768993
-0.35252	0.021749
-0.4125	0.00698501
-0.362554	0.0216316
-0.422504	0.00581995
-0.372576	0.022591
-0.432491	0.00890395
-0.382514	0.0212106
-0.442517	0.0095697
-0.392521	0.0235407
-0.452616	0.00338212
-0.402528	0.0170496
-0.462581	0.0011401
-0.41252	0.0189588
-0.472649	0.00045477
-0.422557	0.018293
-0.482575	-0.00147395
-0.432491	0.0186846
-0.492616	-0.00144458
-0.442498	0.0222973
-0.502585	-0.00404885
-0.452608	0.0205938
-0.512527	-0.00122919
-0.462604	0.0203588
-0.522584	-0.00423487
-0.472584	0.0233645
-0.53259	-0.00696641
-0.482568	0.0247743
-0.542563	-0.00865037
-0.492594	0.025861
-0.552535	-0.0122826
-0.502585	0.0276331
-0.562561	-0.0135554
-0.512611	0.0313535
-0.572572	-0.0108141
-0.522557	0.0196343
-0.582548	-0.0188031
-0.532617	0.0251072
-0.592593	-0.0248242
-0.542555	0.0269967
-0.602547	-0.0254019
-0.552589	0.0240694
-0.61258	-0.0243347
-0.562607	0.0349564
-0.622549	-0.0219458
-0.57253	0.0270359
-0.632583	-0.0242955
-0.582541	0.0214064
-0.642536	-0.0272719
-0.592574	0.0238932
-0.652547	-0.0229543
-0.602558	0.0229239
-0.662554	-0.028946
-0.612554	0.0200161
-0.672557	-0.0236396
-0.622538	0.0283282
-0.682522	-0.0264984
-0.632537	0.0271044
-0.692525	-0.0245697
-0.642536	0.0234134
-0.702516	-0.0235711
-0.652516	0.0268107
-0.712512	-0.0254998
-0.662523	0.021191
-0.722473	-0.0261655
-0.672553	0.0259492
-0.732472	-0.0282117
-0.682552	0.024833
-0.742463	-0.0233948
-0.692555	0.0204273
-0.752489	-0.0255683
-0.702558	0.0253617
-0.762477	-0.0253333
-0.71247	0.0251953
-0.772515	-0.0241976
-0.722541	0.0210735
-0.782487	-0.0253138
-0.732468	0.0192427
-0.792471	-0.0282607
-0.742471	0.025861
-0.802466	-0.0266355
-0.752505	0.0219057
-0.812512	-0.0276047
-0.762519	0.0216316
-0.822423	-0.0277222
-0.772499	0.0180287
-0.83246	-0.0252256
-0.782506	0.0175685
-0.842479	-0.0248242
-0.792429	0.0164034
-0.852531	-0.0233459
-0.802478	0.0214651
-0.862538	-0.0259403
-0.812424	0.0198986
-0.872579	-0.0239039
-0.822457	0.0197616
-0.882556	-0.020771
-0.832483	0.0173433
-0.892551	-0.0236885
-0.842421	0.0176762
-0.902608	-0.0209766
-0.852566	0.0192525
-0.912553	-0.0182744
-0.862607	0.0166482
-0.922553	-0.0170408
-0.872572	0.0188217
-0.932579	-0.00939445
-0.882514	0.0138481
-0.942559	-0.0171485
-0.892574	0.0155908
-0.952546	-0.0136533
-0.902505	0.0153265
-0.962538	-0.0171093
-0.912565	0.0125558
-0.972537	-0.0147107
-0.922556	0.0140635
-0.982563	-0.0161695
-0.932506	0.0154342
-0.992509	-0.0174031
-0.94254	0.0134957
-1.00251	-0.0150533
-0.952554	0.011753
-1.01251	-0.0172954
-0.962557	0.0102452
-1.02252	-0.0184506
-0.972526	0.0149055
-1.03249	-0.0161499
-0.982544	0.0190567
-1.04249	-0.00998187
-0.992536	0.0180385
-1.05251	-0.0195472
-1.00253	0.015679
-1.06253	-0.0190674
-1.01252	0.0184203
-1.07252	-0.017824
-1.02248	0.0166482
-1.08248	-0.0179709
-1.03249	0.0155125
-1.09249	-0.0193709
-1.04257	0.01236
-1.10252	-0.0202815
-1.05252	0.0147391
-1.11242	-0.0229249
-1.06247	0.0134663
-1.12245	-0.0237669
-1.07251	0.015258