File: VFSWV_data_prep/Example_data/CoPc_VFSWV_txt_data/CoPc_CNT_VFSWV_scans_58_57_C02.txt
Ewe/V	<I>/mA
-0.122573	0.00123017
-0.0726032	0.0177514
-0.13256	0.00731884
-0.08261	0.017776
-0.142548	0.00967139
-0.0925711	0.0168153
-0.152608	0.00949895
-0.102563	0.0142657
-0.162543	0.00694933
-0.112547	0.0167537
-0.172557	0.00861213
-0.122561	0.0191925
-0.18253	0.00868603
-0.132545	0.0179608
-0.192498	0.0102133
-0.142563	0.0146967
-0.202551	0.0112849
-0.152521	0.0169015
-0.212539	0.00933883
-0.162558	0.0150663
-0.2225	0.0050525
-0.172531	0.0230723
-0.232503	0.00455982
-0.182499	0.0158422
-0.242529	0.00657982
-0.192533	0.0161748
-0.252498	0.00781152
-0.202494	0.0158669
-0.262485	0.0072203
-0.212524	0.0179484
-0.272557	0.0111494
-0.222538	0.0156082
-0.282488	0.00756518
-0.232526	0.0194142
-0.29254	0.0110755
-0.242491	0.0247598
-0.30252	0.00614872
-0.252501	0.0182687
-0.312478	0.00926493
-0.262489	0.0195866
-0.322496	0.00637043
-0.272485	0.015793
-0.332484	0.00422726
-0.282514	0.0181455
-0.342475	0.00925261
-0.292483	0.0177637
-0.352467	0.00593933
-0.302498	0.0187491
-0.362481	0.00630884
-0.312474	0.0209292
-0.372473	0.00694933
-0.322523	0.0206336
-0.382518	0.00965908
-0.332461	0.0233187
-0.392479	0.00712177
-0.342502	0.0226166
-0.402501	0.00937578
-0.352478	0.0221732
-0.412394	0.00766372
-0.362478	0.0230108
-0.42245	0.00768835
-0.372515	0.0215204
-0.432465	0.00561909
-0.382461	0.0222964
-0.442471	0.00343897
-0.392471	0.0282332
-0.452574	0.00469531
-0.402433	0.0283933
-0.462523	0.00507714
-0.412458	0.0274079
-0.472534	0.00199787
-0.422442	0.0274572
-0.482537	0.00162836
-0.432438	0.0248337
-0.492559	-0.00186968
-0.442433	0.0291446
-0.50252	-0.000995167
-0.452509	0.0315711
-0.512565	-0.00265797
-0.462562	0.0298221
-0.5225	-0.00608211
-0.472511	0.0297974
-0.532495	-0.00966637
-0.482575	0.03316
-0.542509	-0.0090382
-0.492521	0.0351061
-0.552554	-0.0139527
-0.502577	0.0353032
-0.562508	-0.0136817
-0.512519	0.0379144
-0.572477	-0.0159111
-0.522538	0.0428905
-0.58251	-0.0172537
-0.532533	0.0362516
-0.592502	-0.0238187
-0.542509	0.0433708
-0.602501	-0.0199265
-0.552535	0.0397496
-0.612481	-0.0231166
-0.562485	0.0417203
-0.622511	-0.0232151
-0.572507	0.0377666
-0.632461	-0.020296
-0.58248	0.0439497
-0.642475	-0.0250504
-0.592471	0.0429644
-0.652493	-0.0262205
-0.602532	0.037939
-0.66247	-0.0267871
-0.612527	0.0396511
-0.672477	-0.0261958
-0.622446	0.0397373
-0.68251	-0.030125
-0.632491	0.0366704
-0.692444	-0.027329
-0.642433	0.0375818
-0.702459	-0.025309
-0.652497	0.0370399
-0.712412	-0.0274275
-0.66247	0.0365472
-0.722431	-0.0246562
-0.672438	0.0353647
-0.732426	-0.0263806
-0.682476	0.0375202
-0.742425	-0.028068
-0.692475	0.0340838
-0.752432	-0.0283144
-0.702409	0.0369783
-0.762416	-0.0246808
-0.712485	0.0379636
-0.772465	-0.0304699
-0.722434	0.0327289
-0.782445	-0.0269349
-0.732468	0.0378035
-0.792387	-0.0305561
-0.742402	0.03922
-0.80247	-0.0250257
-0.752467	0.0352908
-0.812401	-0.0212321
-0.762462	0.0440113
-0.822427	-0.0259126
-0.772423	0.0327412
-0.832449	-0.0225254
-0.782399	0.0346873
-0.842402	-0.0230673
-0.79244	0.0330615
-0.852535	-0.0213922
-0.802443	0.0290338
-0.862523	-0.0227348
-0.81242	0.0314233
-0.872541	-0.0237078
-0.822423	0.0291816
-0.882521	-0.0229811
-0.832464	0.0298467
-0.892521	-0.0194831
-0.842448	0.0292801
-0.902512	-0.0193599
-0.852547	0.0277282
-0.912561	-0.0166378
-0.86255	0.0266073
-0.922534	-0.0175739
-0.872557	0.0275065
-0.93254	-0.0171182
-0.882518	0.0256836
-0.942551	-0.014741
-0.89254	0.0254865
-0.952485	-0.0143961
-0.902524	0.0287382
-0.962515	-0.0158126
-0.912557	0.0262378
-0.972518	-0.0126594
-0.922503	0.0249938
-0.982491	-0.0150243
-0.932491	0.0230231
-0.992501	-0.0177217
-0.942521	0.023294
-1.00252	-0.0136571
-0.952543	0.0250184
-1.01246	-0.0189534
-0.962427	0.0219884
-1.02246	-0.0120189
-0.972488	0.0236389
-1.03248	-0.0139773
-0.98246	0.0233926
-1.04246	-0.0172783
-0.992486	0.027876
-1.05248	-0.0186701
-1.00251	0.0215697
-1.06243	-0.014741
-1.01249	0.0238237
-1.07248	-0.0186085
-1.02246	0.0275681
-1.08241	-0.0247547
-1.03251	0.0197344
-1.09251	-0.0256785
-1.04245	0.0242794
-1.10246	-0.0270704
-1.05248	0.0201286
-1.11242	-0.0244961
-1.06241	0.0191925
-1.12242	-0.0237571
-1.07254	0.0209045