File: VFSWV_data_prep/Example_data/CoPc_VFSWV_txt_data/CoPc_CNT_VFSWV_scans_45_44_C02.txt
Ewe/V	<I>/mA
-0.122372	0.0123032
-0.072406	0.024697
-0.13239	0.0030091
-0.0823748	0.0280189
-0.142359	0.00224545
-0.0923892	0.0257661
-0.152377	0.000870865
-0.102369	0.024697
-0.162365	0.00522371
-0.112376	0.0274843
-0.172364	0.000679951
-0.122364	0.0244679
-0.182344	-0.00382563
-0.132352	0.0277898
-0.192359	-0.00714753
-0.142408	0.0279807
-0.20243	0.00533826
-0.152358	0.0329063
-0.212464	-0.00310015
-0.162369	0.0241624
-0.222456	-0.00264196
-0.17241	0.0283243
-0.232466	-0.000312803
-0.182329	0.0318372
-0.242404	-0.0114622
-0.192343	0.0249261
-0.25243	-0.00642206
-0.202438	0.0216041
-0.262437	-0.00890394
-0.212418	0.0232078
-0.272383	-0.0096676
-0.222406	0.0225205
-0.282405	-0.00577295
-0.232409	0.0206114
-0.292408	-0.00768209
-0.242404	0.0269116
-0.302381	-0.00691844
-0.252419	0.0217569
-0.312418	-0.00470383
-0.262445	0.0195805
-0.32244	-0.011004
-0.272429	0.0303098
-0.332367	-0.0142495
-0.282428	0.033059
-0.342335	-0.00779664
-0.292393	0.028668
-0.352396	-0.0155096
-0.302407	0.0247733
-0.362376	-0.0171896
-0.312437	0.0262625
-0.372402	-0.0181442
-0.322467	0.0324099
-0.38239	-0.0166169
-0.332382	0.0266061
-0.392393	-0.0201297
-0.342427	0.027828
-0.402369	-0.0241389
-0.352415	0.025537
-0.412429	-0.0255517
-0.36241	0.0305771
-0.422367	-0.037312
-0.372402	0.0336699
-0.432386	-0.0385338
-0.382413	0.0312262
-0.442354	-0.0375029
-0.392416	0.0326008
-0.452392	-0.0520506
-0.402384	0.0386337
-0.46233	-0.0607562
-0.412345	0.0319135
-0.472398	-0.0775567
-0.422402	0.0403137
-0.48242	-0.0977936
-0.432371	0.0437502
-0.492377	-0.127156
-0.442404	0.0588706
-0.502331	-0.150448
-0.452338	0.0613143
-0.512341	-0.193098
-0.462391	0.0790311
-0.52236	-0.230441
-0.47236	0.0947243
-0.532317	-0.278017
-0.482382	0.127982
-0.542362	-0.304439
-0.492324	0.160055
-0.552365	-0.33132
-0.502346	0.192243
-0.56233	-0.350755
-0.512357	0.216528
-0.572333	-0.3498
-0.522367	0.25261
-0.582313	-0.339071
-0.532328	0.259521
-0.592358	-0.319292
-0.542324	0.26502
-0.60227	-0.294855
-0.552373	0.256085
-0.612364	-0.264614
-0.562334	0.238368
-0.622425	-0.237352
-0.57231	0.219506
-0.632431	-0.224026
-0.582328	0.19232
-0.642457	-0.202987
-0.592377	0.157268
-0.652445	-0.193976
-0.602334	0.144973
-0.662441	-0.185691
-0.612364	0.122025
-0.672394	-0.175228
-0.622413	0.106446
-0.682401	-0.174999
-0.632435	0.093197
-0.692369	-0.170761
-0.642434	0.0882714
-0.702479	-0.16679
-0.652426	0.0818185
-0.712383	-0.170265
-0.662364	0.0768929
-0.722402	-0.168432
-0.672421	0.0725782
-0.732408	-0.174045
-0.682447	0.0662017
-0.742385	-0.164575
-0.692434	0.0712418
-0.752411	-0.170074
-0.702388	0.0674999
-0.762337	-0.171639
-0.712437	0.0678054
-0.772405	-0.169005
-0.722379	0.0617343
-0.782397	-0.172403
-0.732397	0.0660872
-0.792419	-0.171066
-0.742327	0.0680345
-0.802357	-0.168355
-0.752411	0.0581451
-0.812353	-0.170646
-0.762356	0.0666599
-0.822424	-0.169845
-0.772413	0.0559687
-0.832362	-0.172212
-0.782336	0.0536777
-0.842392	-0.163774
-0.792354	0.0567705
-0.85238	-0.161444
-0.80235	0.0567705
-0.862372	-0.153922
-0.812364	0.0544796
-0.872371	-0.150371
-0.822424	0.0541359
-0.882355	-0.149722
-0.832359	0.0426811
-0.892377	-0.140597
-0.842362	0.0441702
-0.902395	-0.142391
-0.85238	0.0453539
-0.912383	-0.129676
-0.86241	0.0415738
-0.922355	-0.126125
-0.872371	0.0306917
-0.932332	-0.121772
-0.882339	0.0379464
-0.942373	-0.121276
-0.892327	0.0355791
-0.952372	-0.11341
-0.902357	0.0296989
-0.962322	-0.113219
-0.912394	0.0305008
-0.972271	-0.101917
-0.922397	0.0306535
-0.982362	-0.106347
-0.932336	0.0329445
-0.99235	-0.111425
-0.942346	0.0286298
-1.00235	-0.106003
-0.952311	0.0314935
-1.01236	-0.107225
-0.962322	0.0294698
-1.02243	-0.107607
-0.972268	0.03535
-1.0324	-0.110279
-0.982374	0.0327154
-1.04241	-0.109936
-0.992323	0.0356173
-1.05243	-0.111845
-1.0023	0.0326772
-1.06235	-0.109248
-1.01247	0.0334408
-1.07238	-0.113945
-1.02241	0.039741
-1.08241	-0.122269
-1.0324	0.038901
-1.09238	-0.120092
-1.04238	0.0417265
-1.1024	-0.121467
-1.05243	0.0395119
-1.11242	-0.127118
-1.06246	0.0450102
-1.12239	-0.134984
-1.07236	0.0435975