File: VFSWV_data_prep/Example_data/CoPc_VFSWV_txt_data/CoPc_CNT_VFSWV_scans_62_61_C02.txt
Ewe/V	<I>/mA
-0.122622	0.00222292
-0.0726298	0.0175083
-0.132618	0.0110079
-0.0826367	0.0180299
-0.142624	0.013392
-0.0925673	0.0182254
-0.152574	0.00987177
-0.102582	0.0191102
-0.162596	0.00912674
-0.112619	0.0171451
-0.172573	0.0104678
-0.122622	0.0184024
-0.182606	0.0098904
-0.132614	0.0202836
-0.192601	0.0177784
-0.142628	0.0180299
-0.202555	0.0102909
-0.152563	0.0196689
-0.21255	0.0120044
-0.162585	0.0188121
-0.222614	0.0121069
-0.172588	0.015683
-0.232587	0.00611868
-0.182625	0.0160648
-0.242563	0.00535502
-0.192582	0.0149659
-0.252547	0.00955513
-0.202555	0.0139601
-0.262573	0.00476831
-0.212581	0.0150497
-0.27258	0.00793469
-0.222584	0.018719
-0.282564	0.0135504
-0.23261	0.0159624
-0.292556	0.00799057
-0.242613	0.0175456
-0.302589	0.00784156
-0.252589	0.0248003
-0.312531	0.0101418
-0.262562	0.0162883
-0.322553	0.0108496
-0.272603	0.0200694
-0.33251	0.0199669
-0.282514	0.0187004
-0.342506	0.011306
-0.292533	0.0174152
-0.352555	0.00867041
-0.302559	0.0180112
-0.36255	0.00622112
-0.312569	0.0163349
-0.372519	0.00503838
-0.322614	0.0160555
-0.38253	0.00560647
-0.332518	0.0173314
-0.392536	0.0124887
-0.342567	0.0203581
-0.402539	0.0084469
-0.35252	0.0193895
-0.412565	0.00667745
-0.362539	0.0186352
-0.422503	0.00579273
-0.372477	0.0205816
-0.432529	0.0039674
-0.382514	0.0176946
-0.442502	0.00366939
-0.392517	0.0189891
-0.452566	0.00317581
-0.402555	0.0181137
-0.462634	0.000372626
-0.412539	0.0173128
-0.472637	-0.000940491
-0.422504	0.0187283
-0.482529	0.000633387
-0.432526	0.0207585
-0.492609	-0.00760852
-0.442456	0.0184676
-0.502566	-0.004051
-0.452574	0.01735
-0.512554	-0.00654685
-0.462569	0.0204978
-0.522549	-0.00963873
-0.472587	0.0210379
-0.532571	-0.0112312
-0.48259	0.0188121
-0.542548	-0.0143045
-0.492574	0.0267002
-0.552562	-0.0130286
-0.502639	0.0211869
-0.562531	-0.00937797
-0.51255	0.0312728
-0.572557	-0.0088192
-0.522549	0.0203767
-0.582575	-0.0144442
-0.53259	0.0265512
-0.59254	-0.0182997
-0.542613	0.0251449
-0.602528	-0.0158504
-0.552562	0.0254615
-0.612512	-0.0148446
-0.562535	0.0310865
-0.622519	-0.0151892
-0.572542	0.0269609
-0.632518	-0.0183649
-0.582602	0.027529
-0.64254	-0.0182625
-0.592479	0.0292053
-0.652516	-0.0199108
-0.602528	0.0285907
-0.662508	-0.0206652
-0.612512	0.0263556
-0.672515	-0.0218479
-0.622534	0.0243161
-0.682533	-0.0245487
-0.632541	0.0253219
-0.692513	-0.0176385
-0.642548	0.0256571
-0.702474	-0.0174895
-0.652573	0.0259924
-0.712481	-0.0219224
-0.662496	0.0216991
-0.72245	-0.0162136
-0.672534	0.0220623
-0.732464	-0.0236081
-0.682472	0.0212894
-0.742456	-0.0233194
-0.692551	0.0245303
-0.752524	-0.0192776
-0.702467	0.0268305
-0.762481	-0.0238688
-0.7125	0.0239249
-0.772434	-0.0157759
-0.722495	0.0272869
-0.782502	-0.0136246
-0.732491	0.0261414
-0.792452	-0.015748
-0.742513	0.0273614
-0.802516	-0.0199853
-0.752493	0.0293823
-0.812485	-0.0147515
-0.762485	0.0270075
-0.822526	-0.0188678
-0.772503	0.0234406
-0.832464	-0.0190261
-0.782468	0.0233289
-0.842471	-0.0174336
-0.792429	0.0279667
-0.852539	-0.0169028
-0.802486	0.022053
-0.862569	-0.00829767
-0.812447	0.0248096
-0.87253	-0.0127399
-0.822469	0.0248935
-0.882525	-0.0126375
-0.832468	0.0201905
-0.892532	-0.012265
-0.842479	0.0174245
-0.902558	-0.0112312
-0.852608	0.0216433
-0.912557	-0.0168376
-0.862561	0.0205723
-0.922534	-0.0116876
-0.872534	0.0204233
-0.932514	-0.0120694
-0.882548	0.0205816
-0.942498	-0.0120228
-0.892555	0.022677
-0.952508	-0.00721738
-0.902543	0.0233475
-0.96253	-0.00829767
-0.91255	0.0215036
-0.972503	-0.0137085
-0.922545	0.019017
-0.982552	-0.00612777
-0.932537	0.0215129
-0.99254	-0.00814867
-0.942543	0.018421
-1.00254	-0.0100857
-0.952489	0.0178343
-1.01243	-0.0116969
-0.962523	0.0175828
-1.0225	-0.012386
-0.972518	0.0158879
-1.03247	-0.0124233
-0.982544	0.0169868
-1.04252	-0.0116131
-0.992555	0.0192498
-1.05249	-0.0128703
-1.0025	0.0163349
-1.06245	-0.0116131
-1.01255	0.0184769
-1.07249	-0.0118738
-1.02253	0.0156085
-1.08246	-0.0168469
-1.03255	0.0143699
-1.09247	-0.0194825
-1.04247	0.016009
-1.10251	-0.0199667
-1.05252	0.0160928
-1.11246	-0.0205255
-1.06242	0.0164839
-1.12246	-0.021522
-1.07252	0.0140998