File: VFSWV_data_prep/Example_data/CoPc_VFSWV_txt_data/CoPc_CNT_VFSWV_scans_72_71_C02.txt
Ewe/V	<I>/mA
-0.122307	0.0187561
-0.072322	0.0287252
-0.132306	0.0219488
-0.082348	0.0238853
-0.142424	0.0204483
-0.0923128	0.0242527
-0.152461	0.0220267
-0.102362	0.0211476
-0.162403	0.0254979
-0.112323	0.0302662
-0.172414	0.0261482
-0.122303	0.0256438
-0.18242	0.0232744
-0.132325	0.0250506
-0.192366	0.0249837
-0.142412	0.0253729
-0.202404	0.0204753
-0.152408	0.0225858
-0.212426	0.0219792
-0.162403	0.0225723
-0.222417	0.0194768
-0.17241	0.0218867
-0.232375	0.0232047
-0.182371	0.0206487
-0.242389	0.0175215
-0.192382	0.0193727
-0.252323	0.0196939
-0.202404	0.0218443
-0.262357	0.0213852
-0.212384	0.0226053
-0.272345	0.01889
-0.222387	0.0190515
-0.282336	0.0179649
-0.232344	0.0160734
-0.292389	0.0158534
-0.242339	0.0200383
-0.302339	0.0195539
-0.252377	0.0192489
-0.31233	0.0197718
-0.262357	0.022824
-0.322383	0.0170458
-0.272368	0.0186018
-0.332352	0.0155755
-0.282348	0.0176611
-0.342328	0.0184326
-0.292366	0.0169321
-0.352335	0.0169188
-0.302365	0.0158449
-0.36228	0.0168181
-0.312334	0.0195872
-0.372333	0.0152925
-0.322345	0.0197207
-0.382279	0.015268
-0.332348	0.0185832
-0.392335	0.0175713
-0.342278	0.0200583
-0.402346	0.0134724
-0.352281	0.0164241
-0.412311	0.0123047
-0.36233	0.0153964
-0.42236	0.0138757
-0.372291	0.016328
-0.432313	0.0148001
-0.382279	0.0148443
-0.442293	0.00843722
-0.392328	0.0121721
-0.452274	0.00964806
-0.402335	0.00979205
-0.462284	0.0118442
-0.412338	0.0172434
-0.472322	0.016199
-0.422295	0.021756
-0.482409	0.0186499
-0.432306	0.0254075
-0.492381	0.0192922
-0.442293	0.02299
-0.502369	0.0196275
-0.452327	0.0223542
-0.512353	0.0166792
-0.462357	0.0211857
-0.522371	0.0154298
-0.472264	0.0209747
-0.532344	0.0186186
-0.48237	0.0278681
-0.542389	0.0195127
-0.492381	0.0265847
-0.552319	0.0177457
-0.502434	0.0211667
-0.56236	0.0132188
-0.512341	0.0226333
-0.572379	0.014691
-0.522325	0.0246953
-0.582363	0.014521
-0.532321	0.0216857
-0.592381	0.0161517
-0.542373	0.0231511
-0.602338	0.014768
-0.552377	0.0247134
-0.612322	0.014927
-0.562307	0.0236562
-0.622344	0.0169594
-0.572337	0.027114
-0.632294	0.025788
-0.58234	0.0286751
-0.642301	0.0198841
-0.592339	0.02831
-0.652384	0.0217173
-0.602373	0.0322603
-0.662357	0.0209855
-0.612349	0.0316695
-0.672306	0.0232837
-0.622356	0.0371678
-0.682355	0.0210735
-0.632321	0.0296828
-0.692289	0.0238473
-0.642301	0.030633
-0.702288	0.0274897
-0.65235	0.0313547
-0.712292	0.0245764
-0.662311	0.0327175
-0.722318	0.0234047
-0.672325	0.0314698
-0.732282	0.0217989
-0.682328	0.028184
-0.742312	0.0222721
-0.692297	0.0307915
-0.752281	0.0229059
-0.702315	0.0272298
-0.762311	0.0183788
-0.712341	0.0251887
-0.772237	0.0195857
-0.722314	0.025789
-0.782286	0.0173232
-0.73234	0.0238525
-0.792285	0.0149177
-0.742282	0.025784
-0.802227	0.0171606
-0.752308	0.0246598
-0.812253	0.0193594
-0.762272	0.0281778
-0.822386	0.0239556
-0.772268	0.0286736
-0.832397	0.018164
-0.782298	0.0228878
-0.8424	0.0135754
-0.792282	0.0232301
-0.852395	0.0117821
-0.802334	0.0214521
-0.862436	0.0195897
-0.812299	0.0277769
-0.872413	0.0162417
-0.822405	0.0213732
-0.88237	0.015684
-0.832424	0.0222528
-0.892335	0.015446
-0.842392	0.0220085
-0.902353	0.015823
-0.852353	0.0274825
-0.912341	0.0170096
-0.862463	0.0238992
-0.922355	0.016902
-0.87242	0.0222596
-0.932378	0.0185659
-0.882423	0.0219329
-0.942365	0.0135277
-0.892343	0.0218637
-0.952349	0.0155924
-0.902327	0.0220254
-0.96236	0.0156152
-0.912387	0.0223496
-0.97231	0.0167383
-0.922397	0.0225945
-0.982324	0.0135927
-0.932343	0.0202587
-0.992289	0.0115538
-0.942362	0.0171963
-1.00231	0.0105817
-0.952326	0.0195044
-1.01232	0.0166809
-0.96231	0.0282475
-1.02234	0.0163008
-0.972355	0.0202357
-1.03234	0.0128433
-0.982313	0.0200195
-1.04229	0.0112303
-0.99232	0.0179491
-1.05238	0.0110272
-1.00233	0.017289
-1.06237	0.0120103
-1.01237	0.0175133
-1.07233	0.0103868
-1.02227	0.0136138
-1.08232	0.00745321
-1.03237	0.0136489
-1.09232	0.00548708
-1.04234	0.0173357
-1.10226	0.0123241
-1.05226	0.0197407
-1.11229	0.00977913
-1.06234	0.0206403
-1.1223	0.0130758
-1.07234	0.0231572