File: VFSWV_data_prep/Example_data/CoPc_VFSWV_txt_data/CoPc_CNT_VFSWV_scans_39_38_C02.txt
Ewe/V	<I>/mA
-0.122504	0.00669031
-0.0724273	0.0401037
-0.132465	0.00822106
-0.0823388	0.0420129
-0.142491	0.00497552
-0.0923684	0.0387673
-0.152467	0.000345851
-0.102318	0.0425379
-0.162436	0.00297092
-0.112363	0.0379082
-0.172435	0.00402095
-0.122416	0.0338513
-0.182453	0.000393579
-0.132457	0.0391969
-0.192403	-0.00480883
-0.142426	0.0353786
-0.202432	-0.000751906
-0.152429	0.0368582
-0.212432	-0.00161102
-0.162428	0.031274
-0.222465	-0.00662252
-0.1724	0.0340422
-0.232403	-0.010059
-0.182488	0.0307012
-0.242384	-0.00590659
-0.192479	0.0380037
-0.252436	-0.0113954
-0.202421	0.0383855
-0.262424	-0.00791119
-0.212428	0.033899
-0.272446	-0.0122545
-0.222477	0.0370014
-0.282461	-0.00891349
-0.232487	0.0379082
-0.292395	-0.00786346
-0.242452	0.0391014
-0.302406	-0.00891349
-0.252436	0.0381946
-0.312413	-0.0137341
-0.262428	0.0378605
-0.322423	-0.0196047
-0.272435	0.0387196
-0.332415	-0.0213706
-0.282396	0.0376696
-0.342429	-0.0170751
-0.292433	0.0409151
-0.352425	-0.0181251
-0.30239	0.0400083
-0.362424	-0.019557
-0.312412	0.040581
-0.372393	-0.0239003
-0.322404	0.0396265
-0.3824	-0.0263821
-0.332377	0.0420129
-0.39238	-0.0322528
-0.342403	0.0388151
-0.402398	-0.0377893
-0.352413	0.0420129
-0.412374	-0.0414166
-0.362443	0.0506517
-0.422335	-0.0473827
-0.372408	0.0484562
-0.432361	-0.0620831
-0.382373	0.0485517
-0.442338	-0.0773562
-0.39236	0.0529427
-0.452348	-0.0930112
-0.402325	0.0556632
-0.46237	-0.125085
-0.412363	0.0665931
-0.472331	-0.172384
-0.4224	0.0748501
-0.482353	-0.229944
-0.432373	0.0910301
-0.49233	-0.295428
-0.442307	0.116851
-0.50231	-0.379764
-0.45239	0.151979
-0.512374	-0.475126
-0.462378	0.210924
-0.522301	-0.569485
-0.472328	0.281706
-0.532476	-0.664036
-0.482334	0.362128
-0.542467	-0.749565
-0.492421	0.449185
-0.552466	-0.803833
-0.502352	0.533522
-0.562466	-0.845929
-0.512366	0.595903
-0.572404	-0.859961
-0.522347	0.641149
-0.582395	-0.830035
-0.532411	0.661577
-0.592448	-0.77825
-0.542467	0.650695
-0.602436	-0.703746
-0.552447	0.627738
-0.612431	-0.623944
-0.56245	0.582825
-0.622423	-0.543951
-0.57243	0.522639
-0.632422	-0.462907
-0.582411	0.458254
-0.64241	-0.40549
-0.592448	0.391004
-0.652356	-0.354993
-0.602478	0.32237
-0.66237	-0.321917
-0.612374	0.273974
-0.672438	-0.304258
-0.622415	0.231448
-0.682403	-0.282446
-0.632449	0.197942
-0.69241	-0.271421
-0.642395	0.165343
-0.702413	-0.271086
-0.652375	0.152552
-0.712381	-0.263163
-0.662351	0.136134
-0.722304	-0.261254
-0.672442	0.123867
-0.732391	-0.254811
-0.682403	0.110742
-0.742364	-0.253856
-0.692398	0.112222
-0.752401	-0.259966
-0.702348	0.10974
-0.762366	-0.255622
-0.712362	0.098953
-0.77235	-0.258104
-0.722373	0.0981417
-0.782315	-0.253093
-0.732384	0.105301
-0.792383	-0.254954
-0.742337	0.0979507
-0.80234	-0.256863
-0.752409	0.0907437
-0.812374	-0.2603
-0.762393	0.0969484
-0.822407	-0.257054
-0.772385	0.0886914
-0.832384	-0.247938
-0.782334	0.0846345
-0.842371	-0.249704
-0.792387	0.0858754
-0.852397	-0.24159
-0.802329	0.08683
-0.862324	-0.242831
-0.812347	0.0884528
-0.872388	-0.234622
-0.822388	0.0770934
-0.882418	-0.22856
-0.83238	0.0738478
-0.892326	-0.218585
-0.842394	0.0669272
-0.902363	-0.207989
-0.852397	0.0611998
-0.912343	-0.20441
-0.862366	0.0587656
-0.922289	-0.194673
-0.872381	0.0580019
-0.932437	-0.186034
-0.882384	0.0559496
-0.942516	-0.174007
-0.892364	0.0494108
-0.952386	-0.175343
-0.902394	0.0466903
-0.962469	-0.172336
-0.912351	0.042872
-0.972415	-0.170904
-0.922361	0.0447811
-0.982445	-0.165511
-0.932456	0.0420606
-0.992429	-0.16279
-0.942463	0.0458789
-1.0024	-0.164795
-0.952439	0.0461175
-1.01243	-0.167802
-0.962446	0.0461653
-1.02234	-0.167563
-0.972468	0.0412492
-1.0324	-0.175868
-0.982426	0.0455925
-1.04236	-0.171191
-0.992448	0.0485517
-1.0524	-0.172479
-1.00239	0.0498881
-1.06241	-0.174197
-1.01239	0.0519404
-1.07238	-0.184316
-1.02241	0.0502699
-1.08237	-0.186559
-1.03241	0.0537541
-1.09242	-0.183457
-1.04243	0.0564269
-1.10242	-0.186177
-1.0524	0.0550905
-1.11238	-0.19873
-1.0624	0.0588611
-1.12239	-0.212905
-1.07237	0.0559973