File: VFSWV_data_prep/Example_data/CoPc_VFSWV_txt_data/CoPc_CNT_VFSWV_scans_60_59_C02.txt
Ewe/V	<I>/mA
-0.122595	0.0153196
-0.0726261	0.0320005
-0.132595	0.0272913
-0.0826176	0.0273973
-0.142575	0.0236003
-0.0926283	0.0306641
-0.152589	0.0228578
-0.102627	0.0315762
-0.162638	0.0221366
-0.112604	0.0315762
-0.172561	0.0240139
-0.122618	0.0279277
-0.182564	0.0191456
-0.13261	0.0259337
-0.192567	0.0232821
-0.142571	0.0260715
-0.202562	0.0232078
-0.152578	0.0284155
-0.21252	0.0196759
-0.162577	0.0295716
-0.222565	0.019082
-0.172565	0.0299747
-0.232511	0.0204502
-0.182537	0.0259231
-0.242537	0.0262094
-0.192567	0.0262625
-0.252532	0.0177774
-0.202509	0.0258064
-0.262531	0.0157834
-0.212588	0.0236851
-0.272519	0.0169819
-0.222584	0.0287019
-0.282549	0.0147652
-0.232553	0.0263155
-0.29254	0.0162501
-0.242548	0.0241624
-0.302532	0.0170561
-0.252513	0.0234412
-0.31252	0.0155076
-0.262562	0.0177456
-0.322496	0.0127182
-0.272507	0.0248094
-0.332488	0.0116999
-0.28253	0.019432
-0.342533	0.0157728
-0.292514	0.0203017
-0.352482	0.0119969
-0.302547	0.021776
-0.362523	0.00799833
-0.312497	0.0196653
-0.372507	0.0124106
-0.322523	0.021182
-0.382453	0.00914381
-0.332572	0.0266761
-0.392448	0.0096211
-0.342525	0.0246715
-0.402452	0.0111696
-0.352513	0.0274822
-0.412478	0.0112227
-0.362489	0.0289565
-0.422477	0.0128348
-0.372511	0.0263579
-0.432445	0.0108726
-0.382476	0.0230063
-0.44246	0.00629071
-0.392513	0.0215108
-0.452551	0.00876199
-0.402478	0.0210441
-0.462561	0.00214363
-0.412478	0.0239609
-0.472545	0.00239818
-0.422446	0.0229427
-0.482564	0.000870865
-0.432499	0.0251064
-0.492517	8.59954e-05
-0.442441	0.024417
-0.502566	-0.00204588
-0.452566	0.0251488
-0.512535	-0.00739148
-0.462539	0.0237063
-0.522515	-0.0077627
-0.472568	0.0266655
-0.532541	-0.00958699
-0.482549	0.0282458
-0.542578	-0.0118143
-0.492525	0.0249154
-0.552516	-0.0127371
-0.502551	0.0267185
-0.562527	-0.0158872
-0.512519	0.0291792
-0.572549	-0.0166402
-0.522542	0.0305686
-0.582533	-0.0198433
-0.532556	0.0284049
-0.592506	-0.0197267
-0.542536	0.0298262
-0.602505	-0.0195782
-0.552516	0.0387037
-0.612493	-0.0157281
-0.562455	0.0389583
-0.622488	-0.025295
-0.572541	0.0303671
-0.632487	-0.0244677
-0.582464	0.0303883
-0.64249	-0.0245525
-0.592536	0.0303353
-0.652489	-0.024054
-0.602486	0.029455
-0.662492	-0.0253904
-0.612512	0.0310883
-0.672488	-0.0265359
-0.62253	0.0294868
-0.68246	-0.0254329
-0.632468	0.0253291
-0.692471	-0.025592
-0.642498	0.0294125
-0.702474	-0.0241813
-0.652467	0.0312368
-0.712496	-0.0245207
-0.662473	0.0260821
-0.722457	-0.023004
-0.672541	0.0263049
-0.732533	-0.0237359
-0.682525	0.0254776
-0.742467	-0.0263768
-0.692502	0.0264958
-0.752459	-0.0289648
-0.702512	0.0214047
-0.762458	-0.0266632
-0.712458	0.0252761
-0.772427	-0.0267693
-0.722465	0.0258594
-0.782426	-0.0271193
-0.732468	0.0213199
-0.792425	-0.0268435
-0.742429	0.0281186
-0.802424	-0.0293784
-0.75247	0.0252973
-0.812412	-0.0288163
-0.762443	0.0260821
-0.822434	-0.0285299
-0.772461	0.0235366
-0.832422	-0.0259844
-0.782483	0.0253821
-0.842433	-0.0288587
-0.79249	0.0193577
-0.85252	-0.0274057
-0.802413	0.019432
-0.862572	-0.0287208
-0.812428	0.0220836
-0.872545	-0.0241071
-0.822438	0.0198138
-0.882518	-0.0200661
-0.832418	0.0193789
-0.892521	-0.0217949
-0.842425	0.0198774
-0.90252	-0.0197161
-0.852577	0.0170668
-0.91258	-0.0205964
-0.862511	0.017088
-0.922568	-0.0194933
-0.872518	0.0193789
-0.932517	-0.0131613
-0.882502	0.0166319
-0.942505	-0.0202676
-0.892494	0.0182122
-0.952543	-0.0141689
-0.902527	0.0168122
-0.962492	-0.020013
-0.912576	0.0185835
-0.972503	-0.0162796
-0.92253	0.0132697
-0.98251	-0.0174993
-0.932525	0.0132909
-0.992566	-0.0184221
-0.942486	0.0116363
-1.00249	-0.0215191
-0.952466	0.0137364
-1.01253	-0.0204267
-0.962538	0.0136197
-1.02245	-0.0215828
-0.972526	0.0169289
-1.0325	-0.022654
-0.982514	0.0130469
-1.04248	-0.0195888
-0.992517	0.0175016
-1.05253	-0.0225373
-1.00248	0.0146485
-1.06247	-0.0205327
-1.0125	0.01345
-1.0725	-0.0245844
-1.02248	0.0132697
-1.0825	-0.0218904
-1.03249	0.0215851
-1.09249	-0.0200661
-1.04249	0.0179365
-1.10249	-0.0225267
-1.05247	0.0149985
-1.11243	-0.0241495
-1.06241	0.0153061
-1.1225	-0.0242874
-1.07248	0.0165683