File: VFSWV_data_prep/Example_data/CoPc_VFSWV_txt_data/CoPc_CNT_VFSWV_scans_10_9_C02.txt
Ewe/V	<I>/mA
-0.122014	-0.233823
-0.0720676	0.67028
-0.131983	-0.733703
-0.0820553	0.643424
-0.142032	-0.753558
-0.0920813	0.637824
-0.151935	-0.76565
-0.102019	0.634388
-0.162038	-0.780923
-0.112042	0.638588
-0.171976	-0.799251
-0.122037	0.637188
-0.182059	-0.816433
-0.132002	0.651697
-0.192012	-0.832215
-0.142051	0.650425
-0.202015	-0.848888
-0.152023	0.661243
-0.211927	-0.862125
-0.161996	0.662389
-0.22198	-0.866071
-0.17193	0.684662
-0.232021	-0.885035
-0.181975	0.688989
-0.242035	-0.899417
-0.192081	0.695353
-0.251996	-0.909217
-0.201996	0.693571
-0.262041	-0.923472
-0.211977	0.700826
-0.27193	-0.943582
-0.221968	0.707699
-0.281967	-0.9642
-0.232036	0.719026
-0.292001	-0.985583
-0.242009	0.728699
-0.30197	-1.009
-0.251977	0.738118
-0.312064	-1.04298
-0.261969	0.753391
-0.321987	-1.09084
-0.27198	0.770191
-0.331914	-1.15193
-0.282009	0.792719
-0.341898	-1.1961
-0.291902	0.818047
-0.351981	-1.27285
-0.302015	0.867176
-0.36195	-1.36512
-0.311973	0.915286
-0.371956	-1.49291
-0.321945	0.973833
-0.381967	-1.62476
-0.331898	1.06064
-0.392016	-1.79671
-0.341959	1.172
-0.401935	-2.00099
-0.352008	1.30055
-0.411992	-2.24613
-0.362026	1.46906
-0.421979	-2.53581
-0.37193	1.65972
-0.432055	-2.86558
-0.38196	1.89671
-0.442024	-3.2161
-0.391997	2.14388
-0.452034	-3.59322
-0.401943	2.40938
-0.46203	-3.98841
-0.411915	2.66864
-0.472063	-4.39213
-0.421964	2.90945
-0.481994	-4.78936
-0.432047	3.09858
-0.492062	-5.17017
-0.442069	3.25462
-0.501985	-5.52616
-0.452023	3.37502
-0.512041	-5.86764
-0.462018	3.44986
-0.522025	-6.17896
-0.472094	3.48677
-0.532017	-6.46049
-0.482009	3.50192
-0.542031	-6.71517
-0.491993	3.49352
-0.552053	-6.93002
-0.501977	3.46463
-0.561961	-7.10706
-0.512041	3.43128
-0.57204	-7.23459
-0.521983	3.39781
-0.581963	-7.31833
-0.532009	3.35899
-0.591947	-7.34341
-0.542001	3.3315
-0.601927	-7.30993
-0.552049	3.30744
-0.612056	-7.22695
-0.56198	3.28631
-0.621991	-7.0746
-0.571983	3.26633
-0.63194	-6.86409
-0.581986	3.23935
-0.641951	-6.60979
-0.59197	3.20473
-0.651939	-6.30127
-0.601965	3.14096
-0.662064	-5.97493
-0.61206	3.05442
-0.671945	-5.63307
-0.621949	2.95985
-0.681932	-5.28001
-0.63199	2.82723
-0.691955	-4.95316
-0.641916	2.68341
-0.701977	-4.64694
-0.651965	2.53195
-0.712029	-4.37355
-0.661938	2.38482
-0.721952	-4.13592
-0.671918	2.23998
-0.732009	-3.93572
-0.681948	2.09959
-0.741878	-3.77777
-0.69197	1.98288
-0.751961	-3.63471
-0.701958	1.88602
-0.7619	-3.53238
-0.711976	1.7898
-0.771903	-3.46645
-0.721945	1.72158
-0.781906	-3.39988
-0.731894	1.66494
-0.791916	-3.35801
-0.741955	1.61149
-0.801912	-3.33599
-0.751984	1.5649
-0.811972	-3.31805
-0.761949	1.54225
-0.821941	-3.30074
-0.771918	1.5117
-0.831936	-3.28432
-0.781936	1.48994
-0.841989	-3.26446
-0.791928	1.4697
-0.852041	-3.24677
-0.801977	1.44794
-0.862048	-3.22055
-0.811926	1.42503
-0.872059	-3.1825
-0.821994	1.40415
-0.882093	-3.14966
-0.831928	1.39295
-0.892031	-3.11529
-0.842046	1.36304
-0.902041	-3.07342
-0.852041	1.34612
-0.912014	-3.02544
-0.86198	1.33568
-0.921998	-2.99349
-0.871956	1.32041
-0.931978	-2.95505
-0.882051	1.31022
-0.942008	-2.91993
-0.892065	1.29826
-0.951965	-2.89663
-0.902068	1.2961
-0.961983	-2.88111
-0.912071	1.30195
-0.972002	-2.86672
-0.922028	1.3045
-0.982089	-2.87054
-0.932005	1.31328
-0.991947	-2.86112
-0.941951	1.3325
-1.00196	-2.87576
-0.951927	1.36075
-1.01199	-2.87029
-0.96201	1.37081
-1.02205	-2.88429
-0.972036	1.39792
-1.03204	-2.88989
-0.98205	1.42121
-1.04197	-2.90694
-0.991966	1.43241
-1.052	-2.92654
-1.00198	1.45265
-1.06196	-2.93571
-1.01196	1.46117
-1.07201	-2.96893
-1.02197	1.47148
-1.08207	-2.99286
-1.03195	1.4935
-1.09192	-3.03562
-1.04201	1.5089
-1.10194	-3.07698
-1.05199	1.53041
-1.112	-3.12408
-1.06199	1.54607
-1.12199	-3.17002
-1.07204	1.56274