File: VFSWV_data_prep/Example_data/CoPc_VFSWV_txt_data/CoPc_CNT_VFSWV_scans_40_39_C02.txt
Ewe/V	<I>/mA
-0.122477	0.0162742
-0.0723929	0.0527518
-0.132476	0.0161917
-0.0823578	0.0404378
-0.142479	0.00702785
-0.0924105	0.0430152
-0.152448	0.0144735
-0.102337	0.039006
-0.162474	0.00416414
-0.112375	0.0404378
-0.172473	0.00822106
-0.122469	0.0426333
-0.182472	0.00502325
-0.132461	0.0345195
-0.192441	0.00884153
-0.142464	0.0408674
-0.202455	0.00168225
-0.152436	0.0386242
-0.212397	0.00378231
-0.162416	0.0417742
-0.22245	0.00244591
-0.172439	0.0404378
-0.232434	-0.00060872
-0.182438	0.0418697
-0.242445	0.00306638
-0.192387	0.0395787
-0.252387	0.00134815
-0.202429	0.0353309
-0.262424	-0.00137238
-0.212458	0.0363332
-0.272396	-0.00151556
-0.222454	0.0379082
-0.282411	-0.00304288
-0.232449	0.0399128
-0.29246	-0.0109658
-0.242403	0.0389583
-0.302421	-0.00762482
-0.252436	0.0377173
-0.312371	-0.0102022
-0.262443	0.0372877
-0.322408	-0.0128272
-0.272458	0.0365241
-0.332403	-0.0124454
-0.282415	0.0407719
-0.34241	-0.0119681
-0.29246	0.0409151
-0.352406	-0.0120158
-0.302421	0.0373832
-0.362397	-0.0213229
-0.312397	0.0421561
-0.372412	-0.022182
-0.322404	0.0428243
-0.382392	-0.0291027
-0.332388	0.0466903
-0.392372	-0.0228025
-0.342376	0.0453061
-0.402375	-0.0297231
-0.352398	0.0427765
-0.412374	-0.0354506
-0.362359	0.0442561
-0.422373	-0.0484327
-0.372373	0.0487903
-0.432392	-0.0482418
-0.382361	0.0462607
-0.44236	-0.0618445
-0.392406	0.0466425
-0.452367	-0.0785017
-0.402352	0.0563314
-0.462378	-0.102271
-0.412412	0.0586224
-0.472347	-0.142267
-0.422373	0.0669749
-0.482373	-0.183839
-0.432403	0.0779048
-0.492341	-0.249561
-0.442368	0.0969962
-0.502344	-0.322395
-0.452409	0.127065
-0.512374	-0.396183
-0.462378	0.169591
-0.522293	-0.481426
-0.472377	0.232116
-0.532418	-0.566288
-0.482315	0.301227
-0.54246	-0.634014
-0.492337	0.373106
-0.55244	-0.695489
-0.502375	0.442074
-0.562397	-0.722503
-0.512332	0.501448
-0.572469	-0.724555
-0.522377	0.54617
-0.582392	-0.702648
-0.532434	0.568363
-0.592398	-0.661124
-0.542437	0.563638
-0.602432	-0.6028
-0.552443	0.532901
-0.612389	-0.532496
-0.56245	0.500923
-0.622453	-0.456416
-0.572434	0.449137
-0.632426	-0.395658
-0.582388	0.392102
-0.642356	-0.346354
-0.592452	0.333539
-0.65239	-0.316333
-0.602417	0.282278
-0.662397	-0.282589
-0.612393	0.233213
-0.6724	-0.266743
-0.6224	0.210161
-0.682414	-0.251231
-0.632395	0.171835
-0.692383	-0.242831
-0.642391	0.145966
-0.702363	-0.239251
-0.652443	0.134415
-0.712374	-0.236006
-0.662374	0.126063
-0.7224	-0.235433
-0.672438	0.115706
-0.732327	-0.237247
-0.682384	0.106494
-0.742368	-0.229849
-0.692375	0.112126
-0.752344	-0.226985
-0.702398	0.101053
-0.762359	-0.236483
-0.712378	0.0985712
-0.772343	-0.237104
-0.722335	0.0938938
-0.782346	-0.23381
-0.732376	0.094562
-0.792372	-0.236483
-0.742345	0.0980939
-0.802321	-0.238965
-0.752375	0.0915551
-0.812332	-0.237008
-0.762347	0.0930347
-0.822373	-0.237486
-0.772392	0.0904574
-0.832338	-0.234813
-0.782426	0.0864004
-0.842349	-0.23171
-0.792391	0.0833935
-0.852355	-0.219826
-0.802355	0.0849686
-0.862324	-0.218108
-0.812381	0.0799093
-0.872358	-0.205364
-0.822346	0.0797184
-0.882368	-0.207512
-0.832353	0.0695523
-0.892417	-0.197823
-0.842352	0.0708409
-0.902325	-0.187896
-0.852382	0.0701727
-0.912301	-0.176298
-0.862374	0.0588611
-0.922358	-0.178493
-0.872316	0.0583838
-0.932376	-0.165797
-0.882376	0.0536586
-0.942452	-0.164652
-0.892352	0.0490767
-0.952405	-0.162552
-0.902325	0.0463562
-0.962412	-0.152051
-0.912355	0.0498404
-0.97243	-0.14976
-0.922293	0.0454971
-0.982364	-0.154581
-0.932407	0.0404856
-0.992375	-0.143651
-0.942421	0.0475971
-1.00242	-0.148567
-0.952428	0.0490767
-1.01237	-0.147231
-0.962396	0.0422992
-1.02243	-0.150047
-0.972381	0.0495063
-1.03244	-0.152386
-0.982414	0.0566655
-1.04247	-0.148901
-0.992364	0.0523222
-1.05242	-0.15124
-1.00241	0.051654
-1.06238	-0.151765
-1.01238	0.0532291
-1.07241	-0.157445
-1.02237	0.0562837
-1.08241	-0.16069
-1.03239	0.0545178
-1.09239	-0.169234
-1.04242	0.0528473
-1.10238	-0.176441
-1.0524	0.0551382
-1.11237	-0.182741
-1.0624	0.0541837
-1.12239	-0.188086
-1.07239	0.0534677