File: VFSWV_data_prep/Example_data/CoPc_VFSWV_txt_data/CoPc_CNT_VFSWV_scans_21_20_C02.txt
Ewe/V	<I>/mA
-0.122356	-0.010072
-0.0723295	0.105205
-0.132378	-0.061749
-0.0823172	0.110837
-0.142328	-0.06404
-0.0923088	0.0945143
-0.152346	-0.0732993
-0.102354	0.092987
-0.162384	-0.0778812
-0.112357	0.087355
-0.172413	-0.0780722
-0.122303	0.0859231
-0.182401	-0.0892406
-0.132298	0.0927006
-0.192381	-0.0868542
-0.142324	0.0960416
-0.202388	-0.0870451
-0.152411	0.0887869
-0.212399	-0.101077
-0.162387	0.0944188
-0.222406	-0.0973545
-0.172406	0.103678
-0.232435	-0.104896
-0.182367	0.101101
-0.242377	-0.101364
-0.192389	0.095087
-0.252369	-0.112055
-0.2024	0.0990962
-0.262387	-0.118832
-0.212376	0.10196
-0.272352	-0.124369
-0.222383	0.104442
-0.282336	-0.132292
-0.232416	0.103583
-0.292343	-0.138974
-0.242393	0.100433
-0.302403	-0.144988
-0.252365	0.112747
-0.312357	-0.154533
-0.262349	0.10301
-0.322383	-0.163315
-0.27239	0.118856
-0.332332	-0.176107
-0.282405	0.117997
-0.342331	-0.191666
-0.292381	0.125061
-0.352331	-0.207512
-0.302312	0.131265
-0.362368	-0.237772
-0.312338	0.13852
-0.372352	-0.263927
-0.322379	0.143675
-0.382328	-0.30316
-0.332374	0.163148
-0.392354	-0.364253
-0.342316	0.180903
-0.402342	-0.437945
-0.352354	0.210686
-0.412334	-0.547053
-0.362349	0.250873
-0.422348	-0.67277
-0.372341	0.301752
-0.432347	-0.84612
-0.382344	0.396541
-0.442331	-1.05679
-0.392316	0.505457
-0.452334	-1.3088
-0.402334	0.667066
-0.462303	-1.59689
-0.412341	0.87039
-0.472333	-1.91772
-0.422363	1.13061
-0.482271	-2.25077
-0.43234	1.40714
-0.492297	-2.60148
-0.442312	1.69294
-0.502319	-2.94293
-0.452304	1.96776
-0.512299	-3.27665
-0.462337	2.21805
-0.522256	-3.57915
-0.472279	2.42844
-0.532294	-3.84767
-0.482286	2.59167
-0.542312	-4.08345
-0.492274	2.73314
-0.552269	-4.26081
-0.502315	2.81705
-0.562337	-4.39531
-0.512284	2.89036
-0.572363	-4.48103
-0.522314	2.91699
-0.582382	-4.49945
-0.532279	2.91833
-0.59243	-4.45201
-0.542324	2.88387
-0.602395	-4.34873
-0.552288	2.82755
-0.612352	-4.17643
-0.562261	2.74536
-0.622359	-3.95248
-0.572367	2.61506
-0.632378	-3.67432
-0.582378	2.48085
-0.642339	-3.37401
-0.592346	2.30731
-0.652361	-3.0444
-0.602399	2.11706
-0.662364	-2.73512
-0.612383	1.91965
-0.672333	-2.43099
-0.622398	1.71442
-0.682343	-2.16381
-0.632393	1.52103
-0.692362	-1.92927
-0.642316	1.33603
-0.702334	-1.74905
-0.652323	1.18063
-0.712345	-1.60395
-0.662368	1.03601
-0.722344	-1.48807
-0.672367	0.918977
-0.732313	-1.40846
-0.682359	0.824379
-0.742312	-1.35166
-0.692365	0.748395
-0.752307	-1.30135
-0.702296	0.689785
-0.762349	-1.27625
-0.712333	0.63442
-0.772317	-1.25095
-0.722344	0.60416
-0.78232	-1.23759
-0.732328	0.574568
-0.792312	-1.22881
-0.742331	0.55729
-0.802342	-1.21926
-0.752315	0.539822
-0.812333	-1.21163
-0.762318	0.525121
-0.822352	-1.20475
-0.772375	0.513953
-0.832343	-1.19454
-0.782355	0.50813
-0.842285	-1.18318
-0.792278	0.478252
-0.852323	-1.16619
-0.802326	0.475102
-0.862329	-1.15006
-0.812307	0.46527
-0.872313	-1.12218
-0.822348	0.451428
-0.882297	-1.09984
-0.832309	0.42976
-0.892308	-1.06624
-0.842304	0.415346
-0.90225	-1.04057
-0.852265	0.401027
-0.912326	-1.01613
-0.862318	0.386136
-0.922306	-0.981192
-0.872302	0.366376
-0.932301	-0.958568
-0.882313	0.351867
-0.942323	-0.935563
-0.892319	0.344516
-0.952261	-0.915804
-0.902273	0.340316
-0.962325	-0.906831
-0.912287	0.327334
-0.972317	-0.893658
-0.922302	0.323802
-0.982377	-0.895567
-0.932278	0.332584
-0.992392	-0.878385
-0.942323	0.332489
-1.00236	-0.881057
-0.952299	0.333348
-1.01237	-0.884494
-0.962314	0.344516
-1.02239	-0.88583
-0.972252	0.352058
-1.03243	-0.88793
-0.982412	0.352058
-1.04238	-0.899481
-0.992392	0.35769
-1.05233	-0.909026
-1.00236	0.380695
-1.06232	-0.925445
-1.01238	0.373058
-1.07234	-0.942245
-1.02233	0.38709
-1.08237	-0.9621
-1.03242	0.395681
-1.09238	-0.984342
-1.04236	0.405227
-1.10241	-1.00649
-1.05235	0.411241
-1.11232	-1.03646
-1.06237	0.4247
-1.12242	-1.06768
-1.07234	0.439687