File: VFSWV_data_prep/Example_data/CoPc_VFSWV_txt_data/CoPc_CNT_VFSWV_scans_36_35_C02.txt
Ewe/V	<I>/mA
-0.122348	0.00657577
-0.0723829	0.0439538
-0.132355	-0.00269287
-0.0823783	0.0410901
-0.14232	-0.0049202
-0.0923547	0.0352354
-0.152373	-0.0107749
-0.102342	0.033899
-0.162452	-0.00822938
-0.112407	0.0367627
-0.172406	-0.007593
-0.122375	0.0401992
-0.182424	-0.0109022
-0.132363	0.0345354
-0.192461	-0.00975669
-0.14232	0.0392446
-0.202415	-0.00848393
-0.152338	0.0356173
-0.212467	-0.0193024
-0.162529	0.0319262
-0.222459	-0.0203206
-0.172432	0.0339627
-0.232393	-0.0194297
-0.182474	0.0350445
-0.242465	-0.0137023
-0.192446	0.0407083
-0.252377	-0.0168842
-0.202468	0.0400083
-0.262429	-0.0136386
-0.212452	0.0419174
-0.272421	-0.0198115
-0.22244	0.0369536
-0.282359	-0.0275117
-0.232428	0.038481
-0.292408	-0.0226752
-0.242408	0.03479
-0.302407	-0.026939
-0.252407	0.0370809
-0.312422	-0.0336846
-0.262437	0.0393719
-0.322409	-0.0352756
-0.27244	0.0335808
-0.332424	-0.0404302
-0.28242	0.0371446
-0.342427	-0.0378847
-0.292377	0.0379082
-0.352365	-0.0473032
-0.30243	0.0392446
-0.362383	-0.0495305
-0.312403	0.0378446
-0.37236	-0.0529033
-0.32236	0.0373991
-0.382401	-0.0549397
-0.332363	0.0357445
-0.392431	-0.0665219
-0.3424	0.0408356
-0.402376	-0.0708492
-0.352388	0.0456721
-0.412395	-0.0824314
-0.36238	0.0466903
-0.422356	-0.0967499
-0.372367	0.0511449
-0.432408	-0.114187
-0.382355	0.0537541
-0.442358	-0.152624
-0.392415	0.0555996
-0.452361	-0.205189
-0.40243	0.0736092
-0.46236	-0.268636
-0.41241	0.0846186
-0.472402	-0.35773
-0.422371	0.117392
-0.482359	-0.467378
-0.432366	0.161748
-0.492389	-0.594336
-0.442373	0.230541
-0.50235	-0.744013
-0.452376	0.327398
-0.512379	-0.896426
-0.462383	0.442583
-0.522325	-1.05495
-0.47236	0.575268
-0.532336	-1.19934
-0.482294	0.723863
-0.542362	-1.32999
-0.492312	0.849294
-0.552323	-1.42672
-0.502357	0.967088
-0.562314	-1.49303
-0.512368	1.05911
-0.572375	-1.51282
-0.522321	1.11715
-0.582401	-1.48718
-0.532275	1.13458
-0.592411	-1.41902
-0.54235	1.12427
-0.602456	-1.31039
-0.552319	1.07184
-0.612368	-1.17923
-0.562318	0.997889
-0.622405	-1.03159
-0.572344	0.902559
-0.632401	-0.88898
-0.582389	0.798256
-0.6424	-0.759731
-0.592411	0.688035
-0.652441	-0.651292
-0.602418	0.583541
-0.662368	-0.569581
-0.61241	0.485602
-0.672355	-0.498624
-0.62244	0.404591
-0.682412	-0.453123
-0.63242	0.340698
-0.692411	-0.43155
-0.642396	0.279924
-0.702372	-0.407431
-0.652414	0.229968
-0.71236	-0.394958
-0.662452	0.20324
-0.722401	-0.382867
-0.672386	0.18784
-0.732435	-0.375294
-0.682397	0.167984
-0.742373	-0.374848
-0.692411	0.157293
-0.752407	-0.370585
-0.702395	0.149911
-0.762303	-0.369439
-0.712329	0.140111
-0.772417	-0.374785
-0.72234	0.137247
-0.782362	-0.369821
-0.732358	0.131011
-0.792342	-0.372048
-0.742312	0.134447
-0.802361	-0.373003
-0.752414	0.129993
-0.812379	-0.372812
-0.76241	0.128083
-0.822332	-0.368166
-0.772344	0.12522
-0.83237	-0.368485
-0.782358	0.117519
-0.842308	-0.358621
-0.792354	0.122165
-0.852376	-0.352066
-0.802319	0.115228
-0.862352	-0.343538
-0.812383	0.106637
-0.872367	-0.337238
-0.822394	0.102374
-0.882381	-0.325656
-0.832332	0.094737
-0.892323	-0.315347
-0.842377	0.0913642
-0.902349	-0.308856
-0.852372	0.0869095
-0.912367	-0.292119
-0.862375	0.0790184
-0.922413	-0.283719
-0.872378	0.0714455
-0.932335	-0.270736
-0.882358	0.0651453
-0.942338	-0.2694
-0.892339	0.0638726
-0.952315	-0.255463
-0.902322	0.0603725
-0.96239	-0.259345
-0.912295	0.0591633
-0.972256	-0.24999
-0.922313	0.0580179
-0.982286	-0.247763
-0.932347	0.0526723
-0.992438	-0.244836
-0.94235	0.0601815
-1.00247	-0.242099
-0.952292	0.0564269
-1.01241	-0.240254
-0.962337	0.0596088
-1.02238	-0.238345
-0.972309	0.0592906
-1.03243	-0.244645
-0.982309	0.0601815
-1.04239	-0.248781
-0.99243	0.0559178
-1.05232	-0.251963
-1.00244	0.0581451
-1.06239	-0.255272
-1.01243	0.0658453
-1.07239	-0.258582
-1.02242	0.0573815
-1.08237	-0.265454
-1.03241	0.0670545
-1.09243	-0.270673
-1.04241	0.0658453
-1.10238	-0.279455
-1.05241	0.0754547
-1.11234	-0.286264
-1.06235	0.0770456
-1.12232	-0.295492
-1.07239	0.0760911