File: VFSWV_data_prep/Example_data/CoPc_VFSWV_txt_data/CoPc_CNT_VFSWV_scans_42_41_C02.txt
Ewe/V	<I>/mA
-0.122473	0.0147469
-0.0724273	0.0401356
-0.132495	0.0126439
-0.0824189	0.0372082
-0.142479	0.00992868
-0.0923952	0.0415356
-0.152456	0.00390428
-0.102356	0.0322444
-0.16247	-0.00127162
-0.112355	0.0373355
-0.172496	0.00534674
-0.122458	0.0328384
-0.18248	0.00725588
-0.132457	0.0344081
-0.192437	0.00488006
-0.142452	0.0310565
-0.202448	0.00207999
-0.152452	0.039287
-0.212439	0.00479521
-0.16247	0.0370385
-0.222439	0.00543159
-0.172473	0.0369536
-0.232434	0.00233454
-0.182423	0.038184
-0.242475	0.00140118
-0.192441	0.0323717
-0.252455	-0.00144132
-0.202406	0.0327111
-0.26242	-0.00453837
-0.21242	0.0295716
-0.272377	-0.00271408
-0.222465	0.0338142
-0.282457	-0.00161102
-0.232449	0.0334748
-0.292403	-0.00933244
-0.242437	0.0344081
-0.302421	-0.00687177
-0.252452	0.0330929
-0.31239	-0.00852636
-0.262424	0.0348748
-0.322469	-0.0117931
-0.2724	0.0394992
-0.33238	-0.0131931
-0.282453	0.0380991
-0.342403	-0.0121749
-0.29241	0.0303777
-0.352386	-0.0127265
-0.302417	0.0365718
-0.362439	-0.0191751
-0.312378	0.0381416
-0.372389	-0.0134053
-0.322419	0.0368688
-0.382403	-0.018666
-0.33238	0.0319475
-0.392464	-0.0230783
-0.342422	0.0403053
-0.402383	-0.024945
-0.35236	0.0431478
-0.412367	-0.0273632
-0.362432	0.0422992
-0.422366	-0.0314361
-0.372423	0.0416204
-0.432396	-0.0399636
-0.382377	0.0470085
-0.44236	-0.0488729
-0.39241	0.0421295
-0.45244	-0.06474
-0.402394	0.0467539
-0.462393	-0.0772979
-0.412424	0.04756
-0.472366	-0.10619
-0.422354	0.053542
-0.482334	-0.141106
-0.432346	0.0638513
-0.492345	-0.188665
-0.44241	0.0732698
-0.502337	-0.243818
-0.45239	0.0954582
-0.512317	-0.303255
-0.462359	0.120023
-0.522305	-0.361421
-0.472347	0.161812
-0.532426	-0.431295
-0.482354	0.214843
-0.542452	-0.483182
-0.492318	0.269614
-0.552493	-0.524631
-0.502382	0.323452
-0.562424	-0.551317
-0.512366	0.371647
-0.572434	-0.549747
-0.522347	0.410382
-0.58246	-0.528025
-0.532476	0.429643
-0.592418	-0.504267
-0.542448	0.423406
-0.602409	-0.452296
-0.552497	0.407115
-0.612439	-0.400664
-0.562462	0.378011
-0.622385	-0.353572
-0.572465	0.338895
-0.632433	-0.310383
-0.582418	0.295197
-0.642444	-0.278818
-0.592437	0.25362
-0.652371	-0.257521
-0.602478	0.212298
-0.662439	-0.237411
-0.612405	0.184212
-0.672442	-0.223368
-0.622377	0.15672
-0.682445	-0.221629
-0.63238	0.134235
-0.692417	-0.219805
-0.642406	0.120829
-0.702367	-0.211489
-0.652348	0.108313
-0.712381	-0.21378
-0.662404	0.0997856
-0.722365	-0.206738
-0.672411	0.0917248
-0.732376	-0.204744
-0.682395	0.0862944
-0.74231	-0.207714
-0.692421	0.0872277
-0.752401	-0.20818
-0.70239	0.0884581
-0.762343	-0.208435
-0.712458	0.079676
-0.772392	-0.206144
-0.722358	0.0860398
-0.782365	-0.206653
-0.732353	0.0812882
-0.792375	-0.203853
-0.742345	0.0754759
-0.80242	-0.206144
-0.752367	0.0812033
-0.812362	-0.201859
-0.762378	0.0840458
-0.822396	-0.206144
-0.772377	0.0819246
-0.832349	-0.203344
-0.782384	0.0739062
-0.842326	-0.198125
-0.792425	0.0741607
-0.852348	-0.194434
-0.802397	0.0734819
-0.862366	-0.191168
-0.812339	0.0657605
-0.872438	-0.188155
-0.822365	0.0602028
-0.882361	-0.178228
-0.832372	0.0641059
-0.892375	-0.171143
-0.84236	0.0608391
-0.902374	-0.161809
-0.852382	0.0530753
-0.912351	-0.160367
-0.862343	0.0523965
-0.922369	-0.154003
-0.872312	0.049851
-0.932456	-0.146451
-0.88238	0.0467115
-0.942398	-0.137372
-0.892394	0.0463721
-0.952455	-0.137245
-0.902344	0.0413235
-0.962442	-0.133512
-0.912404	0.0464569
-0.972438	-0.133554
-0.922384	0.0419174
-0.982448	-0.130542
-0.932452	0.0423417
-0.992417	-0.129651
-0.94249	0.0416629
-1.00241	-0.128548
-0.952397	0.0439538
-1.01244	-0.132111
-0.962442	0.0397537
-1.02245	-0.130542
-0.97243	0.0453963
-1.03242	-0.12842
-0.982448	0.0473903
-1.04243	-0.133045
-0.99244	0.0445478
-1.05238	-0.136906
-1.00236	0.0486631
-1.06242	-0.141063
-1.01247	0.046966
-1.07247	-0.140978
-1.0224	0.0447175
-1.08239	-0.142888
-1.03249	0.0482812
-1.09238	-0.148785
-1.0424	0.0474751
-1.10242	-0.155827
-1.05239	0.0498934
-1.11239	-0.155403
-1.06242	0.0528632
-1.12237	-0.161894
-1.07243	0.053245