File: VFSWV_data_prep/Example_data/CoPc_VFSWV_txt_data/CoPc_CNT_VFSWV_scans_52_51_C02.txt
Ewe/V	<I>/mA
-0.12247	0.0110813
-0.0724858	0.0306747
-0.132466	0.00975898
-0.0824965	0.0254564
-0.142454	0.0169925
-0.0924804	0.0237169
-0.152418	0.0151258
-0.102499	0.0249048
-0.162448	0.0144894
-0.112475	0.02692
-0.172455	0.0125166
-0.122421	0.0263261
-0.182439	0.0109681
-0.132447	0.0252655
-0.192438	0.0174804
-0.142438	0.0275776
-0.202453	0.0162289
-0.15246	0.0309292
-0.212429	0.0115408
-0.162437	0.0219351
-0.222444	0.00331032
-0.17247	0.0252655
-0.23247	0.0128348
-0.182439	0.0222957
-0.242419	0.0133227
-0.19248	0.0278534
-0.252422	0.0122621
-0.202411	0.029911
-0.262452	0.00882562
-0.212437	0.0273019
-0.272386	0.0091226
-0.22244	0.0212775
-0.282424	0.00797712
-0.232382	0.0249048
-0.292396	0.00914381
-0.242419	0.0219775
-0.302395	0.0117318
-0.252407	0.0290625
-0.312395	0.0124954
-0.262395	0.0294868
-0.322432	0.00969534
-0.272424	0.0297413
-0.332427	0.0106711
-0.282427	0.0246715
-0.342389	0.00271637
-0.292377	0.0287231
-0.352353	0.00218605
-0.302418	0.0312262
-0.362425	0.00967413
-0.312433	0.0282777
-0.372348	0.00776499
-0.322413	0.0266655
-0.382397	0.00865592
-0.332389	0.0267928
-0.392343	-0.00146253
-0.342385	0.0254139
-0.40238	-0.000741299
-0.352349	0.0320747
-0.412356	0.00333154
-0.362391	0.0308656
-0.422329	0.00271637
-0.372386	0.0339839
-0.432454	-0.000995852
-0.382408	0.0333475
-0.442453	-0.00941729
-0.392388	0.0310565
-0.452468	-0.00729602
-0.402372	0.0318414
-0.462414	-0.0138295
-0.41236	0.0308444
-0.472478	-0.0210418
-0.422356	0.0309292
-0.482427	-0.020957
-0.432454	0.0306747
-0.492423	-0.0303118
-0.442491	0.0370385
-0.502422	-0.0341513
-0.452441	0.0352354
-0.512406	-0.0352544
-0.462482	0.0379719
-0.522462	-0.0450546
-0.472409	0.0410053
-0.53242	-0.0436334
-0.482458	0.0416417
-0.542415	-0.0541761
-0.492438	0.0456721
-0.552449	-0.0592671
-0.502433	0.0474964
-0.562379	-0.0705735
-0.512444	0.0510177
-0.57242	-0.074519
-0.522432	0.0480479
-0.582404	-0.0720159
-0.532465	0.0497237
-0.592419	-0.0776585
-0.542423	0.0587391
-0.60241	-0.0779555
-0.552456	0.0557693
-0.612413	-0.0695553
-0.562387	0.0540511
-0.622424	-0.0761524
-0.572401	0.0499995
-0.632412	-0.0763433
-0.582393	0.050551
-0.642419	-0.0731614
-0.592407	0.0569148
-0.652399	-0.0763433
-0.602407	0.0497449
-0.662367	-0.0707644
-0.612391	0.0457357
-0.67242	-0.0791434
-0.622416	0.0469024
-0.682423	-0.0744342
-0.632389	0.0407507
-0.692392	-0.0756433
-0.642411	0.039287
-0.702364	-0.0747312
-0.652384	0.0331354
-0.712371	-0.0759827
-0.662402	0.0428084
-0.722367	-0.0813071
-0.672409	0.0336657
-0.732328	-0.0790586
-0.682404	0.0407507
-0.74235	-0.0736705
-0.692342	0.0331354
-0.752368	-0.0776373
-0.702372	0.0373779
-0.762356	-0.0727584
-0.712402	0.0396477
-0.772332	-0.0813283
-0.722351	0.0372931
-0.782393	-0.0780191
-0.732335	0.0390113
-0.792342	-0.0766615
-0.742365	0.0336657
-0.802299	-0.0791434
-0.752341	0.0325626
-0.812322	-0.0740948
-0.762318	0.0360627
-0.822405	-0.081095
-0.772367	0.030908
-0.832435	-0.0837466
-0.782412	0.0322232
-0.842434	-0.0750069
-0.792384	0.0280867
-0.852471	-0.0739887
-0.802315	0.0315868
-0.862474	-0.0712099
-0.812325	0.0274504
-0.872493	-0.0733736
-0.822332	0.0227836
-0.882438	-0.0747524
-0.832488	0.0235897
-0.892411	-0.0684734
-0.842483	0.0209805
-0.902471	-0.0666491
-0.852444	0.020832
-0.912413	-0.0623217
-0.862432	0.0199411
-0.92242	-0.0592035
-0.872473	0.0209593
-0.932408	-0.0589065
-0.882476	0.0189865
-0.942392	-0.0548124
-0.892434	0.0193047
-0.952395	-0.0515881
-0.902414	0.0198986
-0.962436	-0.0460092
-0.912352	0.0200259
-0.972427	-0.0549397
-0.922389	0.018435
-0.982419	-0.0514608
-0.932431	0.0183077
-0.992437	-0.0520124
-0.942399	0.0161864
-1.00242	-0.0498275
-0.952437	0.0226987
-1.01242	-0.0496153
-0.96244	0.0102681
-1.02241	-0.0565519
-0.972408	0.0136197
-1.03234	-0.0568064
-0.9824	0.016738
-1.04237	-0.0526063
-0.992395	0.0169713
-1.05238	-0.0561064
-1.00245	0.0171834
-1.06232	-0.0515457
-1.01241	0.0156137
-1.07239	-0.0594156
-1.02237	0.0182865
-1.08236	-0.0555125
-1.03239	0.0182016
-1.0924	-0.0621945
-1.04242	0.02412
-1.10239	-0.0668613
-1.05242	0.0195805
-1.11237	-0.0664158
-1.0624	0.0166531
-1.12237	-0.0672855
-1.07239	0.0209381