File: VFSWV_data_prep/Example_data/CoPc_VFSWV_txt_data/CoPc_CNT_VFSWV_scans_24_23_C02.txt
Ewe/V	<I>/mA
-0.122287	-0.0143866
-0.0723295	0.0759956
-0.132298	-0.0398893
-0.0823554	0.0674045
-0.14229	-0.0509623
-0.0922707	0.0758047
-0.152293	-0.0558307
-0.102293	0.0665454
-0.162376	-0.0549715
-0.1123	0.0531814
-0.17241	-0.0623217
-0.12231	0.0689318
-0.182359	-0.0721538
-0.132256	0.0611043
-0.192351	-0.0674764
-0.142305	0.066259
-0.202346	-0.0690037
-0.152377	0.0638726
-0.212383	-0.0790267
-0.162464	0.0646362
-0.222379	-0.0785494
-0.172356	0.0617725
-0.232328	-0.0771176
-0.182359	0.0614861
-0.242358	-0.0816995
-0.192374	0.0693136
-0.252365	-0.0886679
-0.202327	0.0660681
-0.262349	-0.0898134
-0.212414	0.0633953
-0.272329	-0.0970681
-0.222394	0.0688363
-0.282348	-0.10375
-0.232325	0.071891
-0.292316	-0.109096
-0.242347	0.062918
-0.302346	-0.112819
-0.252323	0.0727501
-0.312326	-0.110432
-0.26233	0.0726546
-0.322325	-0.132292
-0.272322	0.0724637
-0.332317	-0.128951
-0.282367	0.0839185
-0.342328	-0.144892
-0.292354	0.0843004
-0.352334	-0.157302
-0.302342	0.0781911
-0.362341	-0.175438
-0.312303	0.0964234
-0.372287	-0.191666
-0.32236	0.0937506
-0.382363	-0.227558
-0.332302	0.107496
-0.392282	-0.269559
-0.342366	0.115515
-0.402311	-0.317097
-0.352342	0.133652
-0.41236	-0.399094
-0.362303	0.163721
-0.422302	-0.496842
-0.372344	0.198658
-0.43229	-0.629051
-0.38234	0.254119
-0.442293	-0.798582
-0.392343	0.332393
-0.452319	-1.0188
-0.40227	0.453242
-0.462276	-1.25563
-0.41228	0.609505
-0.472276	-1.54067
-0.422318	0.825238
-0.482332	-1.8404
-0.432347	1.06589
-0.492312	-2.16753
-0.44227	1.33212
-0.502239	-2.48712
-0.452269	1.60636
-0.512292	-2.80824
-0.462334	1.85541
-0.522276	-3.09108
-0.472325	2.09119
-0.532275	-3.3575
-0.482244	2.27829
-0.542282	-3.58039
-0.49227	2.42004
-0.552269	-3.75804
-0.502292	2.53879
-0.562265	-3.87784
-0.512257	2.61363
-0.572367	-3.95726
-0.522245	2.64923
-0.582313	-3.95812
-0.532259	2.65563
-0.592354	-3.91316
-0.542312	2.61907
-0.602372	-3.79584
-0.552323	2.55568
-0.612333	-3.60798
-0.562276	2.46853
-0.622344	-3.38547
-0.572405	2.33403
-0.632362	-3.10769
-0.582294	2.17882
-0.642373	-2.81464
-0.592335	2.00852
-0.652338	-2.51299
-0.602418	1.81828
-0.662349	-2.21373
-0.61231	1.60913
-0.672378	-1.95285
-0.622375	1.42815
-0.682343	-1.72251
-0.632374	1.25126
-0.692312	-1.53055
-0.642346	1.07075
-0.702342	-1.38746
-0.652372	0.931291
-0.71233	-1.27043
-0.662314	0.815884
-0.722325	-1.18452
-0.67231	0.713745
-0.732297	-1.12743
-0.682332	0.628024
-0.742289	-1.08037
-0.692335	0.568841
-0.752303	-1.04935
-0.702326	0.519489
-0.762265	-1.03522
-0.71231	0.484266
-0.772241	-1.01966
-0.722306	0.452956
-0.782282	-1.00897
-0.732313	0.43501
-0.792232	-1.0083
-0.74232	0.4184
-0.802303	-0.997801
-0.752292	0.411909
-0.812261	-0.990833
-0.762238	0.399786
-0.822313	-0.991119
-0.772283	0.39215
-0.832347	-0.991119
-0.782313	0.376017
-0.842266	-0.97976
-0.792297	0.369717
-0.852338	-0.958664
-0.802311	0.358167
-0.86231	-0.941673
-0.81228	0.346044
-0.872351	-0.921531
-0.822248	0.339362
-0.882324	-0.892799
-0.832263	0.318743
-0.892285	-0.869412
-0.842266	0.309579
-0.90228	-0.844879
-0.852269	0.293256
-0.912249	-0.811183
-0.862284	0.268342
-0.922309	-0.79085
-0.87231	0.262805
-0.932263	-0.773764
-0.882244	0.256314
-0.942281	-0.750663
-0.892285	0.246291
-0.952212	-0.737299
-0.902235	0.236841
-0.962249	-0.723649
-0.912276	0.229204
-0.972283	-0.710666
-0.922313	0.227009
-0.982347	-0.708566
-0.932244	0.233118
-0.992361	-0.704843
-0.942289	0.227391
-1.00236	-0.693484
-0.952315	0.227295
-1.01234	-0.697875
-0.962245	0.234932
-1.02233	-0.70513
-0.97221	0.244477
-1.03229	-0.707898
-0.982343	0.248773
-1.04231	-0.71668
-0.992388	0.250682
-1.05234	-0.729567
-1.00233	0.256791
-1.06231	-0.735008
-1.01233	0.261373
-1.0723	-0.749899
-1.02235	0.268724
-1.08229	-0.768991
-1.03235	0.274165
-1.09233	-0.784455
-1.04234	0.291538
-1.10231	-0.799632
-1.05229	0.30032
-1.11229	-0.823019
-1.06229	0.30452
-1.12232	-0.847552
-1.07229	0.317502