File: VFSWV_data_prep/Example_data/CoPc_VFSWV_txt_data/CoPc_CNT_VFSWV_scans_02_1_C02.txt
Ewe/V	<I>/mA
-0.122281	-2.80353
-0.0723192	6.67022
-0.132257	-6.06352
-0.0823337	4.53986
-0.142253	-6.44974
-0.0922909	4.3814
-0.152309	-6.53622
-0.102313	4.34417
-0.162266	-6.57307
-0.112305	4.33863
-0.172323	-6.60075
-0.122308	4.32737
-0.182234	-6.62538
-0.132246	4.31152
-0.192249	-6.65459
-0.142279	4.31229
-0.202298	-6.67884
-0.152248	4.30198
-0.21227	-6.70308
-0.162282	4.30446
-0.222266	-6.72962
-0.172239	4.29472
-0.23228	-6.75043
-0.182261	4.28002
-0.242249	-6.76055
-0.192283	4.27754
-0.252282	-6.78708
-0.202229	4.26819
-0.262297	-6.80007
-0.212228	4.26723
-0.272372	-6.83882
-0.222266	4.26112
-0.282345	-6.8539
-0.232253	4.25788
-0.292386	-6.87987
-0.242226	4.24432
-0.302343	-6.90545
-0.252248	4.23668
-0.312358	-6.94096
-0.26219	4.23688
-0.322372	-6.98029
-0.272338	4.21358
-0.332318	-7.01656
-0.282318	4.20633
-0.342321	-7.06124
-0.292314	4.20518
-0.352351	-7.14123
-0.302305	4.18915
-0.362362	-7.22141
-0.312297	4.1943
-0.372365	-7.30809
-0.322342	4.18113
-0.382371	-7.42512
-0.332314	4.17196
-0.392348	-7.56086
-0.342325	4.15154
-0.402351	-7.71397
-0.352282	4.12328
-0.412335	-7.89152
-0.362339	4.09102
-0.422292	-8.09389
-0.3723	4.02821
-0.432387	-8.3312
-0.382295	3.9421
-0.44231	-8.58187
-0.392271	3.83748
-0.452313	-8.86538
-0.40232	3.68991
-0.462255	-9.17962
-0.412247	3.52381
-0.472269	-9.51429
-0.422292	3.31419
-0.482299	-9.88238
-0.432272	3.08986
-0.492271	-10.2674
-0.442302	2.81991
-0.502271	-10.6615
-0.452267	2.52724
-0.512247	-11.0975
-0.46222	2.21299
-0.522193	-11.526
-0.472315	1.88309
-0.532223	-11.9675
-0.482337	1.53945
-0.542241	-12.4095
-0.492264	1.17786
-0.552274	-12.8509
-0.502244	0.813974
-0.562235	-13.2803
-0.512289	0.459829
-0.572235	-13.6873
-0.522284	0.124583
-0.582245	-14.0672
-0.532333	-0.207798
-0.59226	-14.4084
-0.542279	-0.496079
-0.602213	-14.7089
-0.552236	-0.747322
-0.612312	-14.9592
-0.562224	-0.936709
-0.622288	-15.1274
-0.572235	-1.07818
-0.632345	-15.2114
-0.582268	-1.14481
-0.642336	-15.203
-0.59226	-1.12896
-0.652274	-15.0898
-0.60229	-1.02777
-0.662289	-14.8565
-0.612319	-0.845261
-0.672311	-14.5302
-0.622299	-0.555453
-0.682287	-14.1088
-0.632341	-0.203598
-0.692325	-13.6168
-0.642317	0.190067
-0.702324	-13.0907
-0.652358	0.586214
-0.712289	-12.5722
-0.662293	0.955251
-0.722322	-12.1052
-0.672334	1.26778
-0.732352	-11.6764
-0.682341	1.52017
-0.742263	-11.3217
-0.692302	1.71184
-0.752286	-11.0546
-0.702305	1.84835
-0.762243	-10.8293
-0.7123	1.94056
-0.772242	-10.6523
-0.72228	1.99841
-0.78226	-10.5229
-0.732318	2.02323
-0.792252	-10.4376
-0.74229	2.04251
-0.80224	-10.3738
-0.75227	2.03983
-0.812254	-10.3293
-0.762262	2.02456
-0.822307	-10.3123
-0.772311	1.99764
-0.832287	-10.3024
-0.782276	1.98619
-0.842252	-10.294
-0.792305	1.96347
-0.852266	-10.2907
-0.802213	1.93999
-0.862285	-10.294
-0.812243	1.923
-0.872315	-10.2883
-0.822299	1.8997
-0.882279	-10.29
-0.832256	1.89379
-0.892279	-10.2927
-0.84229	1.88329
-0.902301	-10.2829
-0.852312	1.88309
-0.912243	-10.2636
-0.862277	1.89665
-0.922238	-10.2415
-0.872299	1.91249
-0.932241	-10.2127
-0.882199	1.9396
-0.942263	-10.1928
-0.892271	1.96328
-0.952308	-10.189
-0.902263	1.99898
-0.962357	-10.1613
-0.912262	2.02876
-0.97236	-10.1367
-0.92223	2.07
-0.982333	-10.1136
-0.932188	2.11238
-0.99232	-10.0895
-0.942244	2.13663
-1.00232	-10.084
-0.952335	2.1498
-1.01235	-10.0616
-0.962327	2.18226
-1.02226	-10.0494
-0.972353	2.20058
-1.03233	-10.0563
-0.982344	2.22273
-1.04235	-10.0426
-0.99237	2.24927
-1.05231	-10.0347
-1.00233	2.25652
-1.06231	-10.0298
-1.01233	2.2863
-1.07228	-10.0185
-1.02236	2.30368
-1.08235	-10.0175
-1.03232	2.31704
-1.09231	-10.0288
-1.04229	2.3138
-1.10225	-10.045
-1.05231	2.3222
-1.11225	-10.0672
-1.06233	2.3117
-1.12225	-10.096
-1.07236	2.29566