File: VFSWV_data_prep/Example_data/CoPc_VFSWV_txt_data/CoPc_CNT_VFSWV_scans_35_34_C02.txt
Ewe/V	<I>/mA
-0.122341	0.0105468
-0.0723524	0.0476448
-0.132332	0.00214363
-0.0823477	0.0498085
-0.142332	0.00456187
-0.092347	0.0460539
-0.152323	-0.00148374
-0.102377	0.0477085
-0.162445	-0.00288378
-0.112315	0.0422356
-0.172432	-0.0067657
-0.122348	0.0386082
-0.182432	-0.0035838
-0.132344	0.0370173
-0.192442	-0.007593
-0.142324	0.044272
-0.2024	-0.0140204
-0.152346	0.0394992
-0.212353	-0.0122386
-0.16246	0.0439538
-0.222474	-0.0139568
-0.172383	0.0426174
-0.232424	-0.0166932
-0.18239	0.0406447
-0.242408	-0.0200661
-0.192381	0.0403901
-0.252396	-0.023948
-0.202461	0.045163
-0.262422	-0.0147841
-0.212445	0.0405174
-0.272417	-0.0210206
-0.222409	0.040581
-0.282397	-0.0222298
-0.232413	0.0401356
-0.292396	-0.0308209
-0.242412	0.0420447
-0.302377	-0.0348301
-0.252434	0.0423629
-0.312414	-0.0323482
-0.262399	0.0450993
-0.32244	-0.0266844
-0.272383	0.0364445
-0.332382	-0.0368029
-0.28242	0.0449084
-0.342404	-0.0419576
-0.292435	0.0439538
-0.352346	-0.0408757
-0.302422	0.0505086
-0.362345	-0.0384575
-0.312429	0.0463721
-0.372364	-0.0461577
-0.322386	0.0447175
-0.382389	-0.0494669
-0.332374	0.0503813
-0.392415	-0.0553852
-0.342396	0.0561087
-0.402354	-0.0637854
-0.352422	0.0442084
-0.412338	-0.0833859
-0.36241	0.0487267
-0.422295	-0.0994227
-0.372325	0.0604361
-0.432328	-0.12106
-0.382363	0.0701091
-0.44235	-0.163761
-0.392354	0.0749456
-0.452319	-0.222435
-0.40238	0.0790184
-0.462356	-0.292437
-0.412376	0.0990008
-0.472318	-0.388021
-0.422352	0.136802
-0.482355	-0.512879
-0.432355	0.191721
-0.492324	-0.65581
-0.442369	0.269869
-0.502334	-0.815542
-0.452357	0.364626
-0.512326	-0.986537
-0.462357	0.502275
-0.522356	-1.15168
-0.47231	0.657488
-0.532313	-1.30823
-0.482344	0.815438
-0.542343	-1.44664
-0.492362	0.952387
-0.55233	-1.5491
-0.502304	1.06159
-0.562284	-1.61299
-0.512364	1.15654
-0.572302	-1.64169
-0.522337	1.21515
-0.582401	-1.61108
-0.53234	1.23589
-0.592438	-1.54369
-0.542335	1.21528
-0.602411	-1.42978
-0.552369	1.17137
-0.612391	-1.29283
-0.562295	1.09322
-0.622398	-1.13074
-0.572306	0.99197
-0.632412	-0.974128
-0.582359	0.880413
-0.6424	-0.833679
-0.592442	0.760837
-0.652372	-0.711366
-0.602399	0.643361
-0.662425	-0.617818
-0.612372	0.543895
-0.67239	-0.541453
-0.622428	0.453019
-0.682423	-0.491306
-0.632439	0.373217
-0.692381	-0.461842
-0.6424	0.310852
-0.70241	-0.442305
-0.652395	0.265478
-0.712383	-0.413031
-0.662375	0.228122
-0.722386	-0.409849
-0.672424	0.200694
-0.73237	-0.401513
-0.682355	0.182685
-0.742323	-0.394894
-0.692392	0.17123
-0.752365	-0.392222
-0.702403	0.159202
-0.762345	-0.39674
-0.712383	0.158248
-0.77234	-0.389612
-0.722382	0.152457
-0.78232	-0.394067
-0.732324	0.144438
-0.792335	-0.392031
-0.742335	0.144057
-0.802326	-0.393176
-0.752307	0.134065
-0.812329	-0.396994
-0.762341	0.138456
-0.822355	-0.385158
-0.772355	0.127511
-0.832332	-0.384967
-0.782343	0.130947
-0.842361	-0.38223
-0.79235	0.124647
-0.852364	-0.377457
-0.802296	0.118792
-0.862303	-0.365175
-0.812322	0.117583
-0.872378	-0.360148
-0.822344	0.100974
-0.882385	-0.347102
-0.832339	0.104219
-0.892335	-0.339911
-0.842338	0.0976007
-0.902334	-0.323301
-0.852277	0.0928915
-0.912276	-0.309301
-0.862345	0.0894551
-0.922271	-0.299501
-0.872348	0.0807366
-0.932339	-0.287982
-0.882324	0.0708091
-0.942335	-0.281619
-0.892296	0.0706182
-0.952345	-0.269718
-0.902357	0.0679454
-0.96228	-0.272582
-0.91231	0.063618
-0.97226	-0.263864
-0.922363	0.0614543
-0.982297	-0.260745
-0.932286	0.0622816
-0.992388	-0.260682
-0.942277	0.0649544
-1.00235	-0.263545
-0.952284	0.0701091
-1.01238	-0.255781
-0.962333	0.0635544
-1.02241	-0.2547
-0.972306	0.0669272
-1.0324	-0.261063
-0.982309	0.0650817
-1.04242	-0.265264
-0.992392	0.0736092
-1.05239	-0.265709
-1.00233	0.0643817
-1.06232	-0.262463
-1.01237	0.0708091
-1.07235	-0.268191
-1.0224	0.0775547
-1.08239	-0.2764
-1.0324	0.078382
-1.09232	-0.286582
-1.04239	0.0738001
-1.10238	-0.293519
-1.05238	0.0778093
-1.11236	-0.301537
-1.06238	0.0865277
-1.12237	-0.310192
-1.07241	0.0881823