File: VFSWV_data_prep/Example_data/CoPc_VFSWV_txt_data/CoPc_CNT_VFSWV_scans_56_55_C02.txt
Ewe/V	<I>/mA
-0.122516	-0.000411698
-0.072501	0.0209462
-0.132485	0.011239
-0.082485	0.0189637
-0.142469	0.00778783
-0.0924918	0.0209609
-0.152487	0.014088
-0.102514	0.0201532
-0.16246	0.0105634
-0.11249	0.0206672
-0.172512	0.00677452
-0.122432	0.0197861
-0.1825	0.0129572
-0.132504	0.0193602
-0.192484	0.0114152
-0.142484	0.0178475
-0.202464	0.0136327
-0.152472	0.0174657
-0.212402	0.00515909
-0.162494	0.022547
-0.222482	0.0096676
-0.17247	0.0164818
-0.232443	0.0103578
-0.182496	0.0149398
-0.242423	0.00602555
-0.192423	0.016893
-0.252445	0.00573183
-0.202495	0.0159678
-0.262494	0.00206041
-0.212429	0.0154978
-0.27244	0.0135887
-0.222444	0.0191693
-0.282416	0.00721509
-0.23247	0.00847806
-0.292385	0.00740601
-0.242492	0.015351
-0.302411	0.00774378
-0.252426	0.0178769
-0.312372	0.00395486
-0.262421	0.0164671
-0.322436	0.00248629
-0.272478	0.0154538
-0.332389	0.00322058
-0.282424	0.0157475
-0.342423	-0.00181662
-0.29243	0.0137943
-0.352422	0.00114989
-0.302399	0.0163937
-0.36244	0.00258909
-0.312467	0.0156887
-0.37244	0.00113521
-0.322443	0.019507
-0.382435	0.00197229
-0.33242	0.0182294
-0.392411	0.00275064
-0.342427	0.018714
-0.40243	-0.000509592
-0.352441	0.0185525
-0.412459	-0.00159633
-0.362475	0.0184497
-0.422356	-0.00131731
-0.372405	0.0160265
-0.432515	-0.00178725
-0.382446	0.0203294
-0.442488	-0.00468033
-0.392377	0.0173482
-0.45251	-0.00708879
-0.40243	0.0198595
-0.462471	-0.00754405
-0.41233	0.0191399
-0.472474	-0.0119351
-0.422424	0.0254988
-0.482439	-0.014931
-0.432462	0.0216805
-0.492476	-0.012126
-0.442507	0.0248673
-0.502456	-0.0168107
-0.45243	0.0228847
-0.512448	-0.017501
-0.46252	0.0278485
-0.522443	-0.0215542
-0.472459	0.0247939
-0.532446	-0.0257837
-0.482435	0.0277017
-0.542476	-0.0305712
-0.492468	0.024647
-0.55241	-0.0286915
-0.502491	0.0345305
-0.562436	-0.0282362
-0.512463	0.0325039
-0.572478	-0.0374295
-0.522428	0.0341927
-0.582397	-0.036328
-0.532496	0.0328417
-0.592434	-0.0343014
-0.542442	0.0368362
-0.602433	-0.0393092
-0.552464	0.0402139
-0.61244	-0.0371064
-0.562444	0.0367187
-0.622432	-0.0427163
-0.572416	0.0393915
-0.632427	-0.0389568
-0.582458	0.0377467
-0.642445	-0.0423051
-0.592445	0.0371005
-0.652376	-0.041659
-0.602418	0.0388187
-0.662364	-0.0451395
-0.612394	0.035955
-0.672451	-0.0408659
-0.622478	0.0364397
-0.682408	-0.0416736
-0.632442	0.0375558
-0.69243	-0.0415415
-0.642426	0.0362047
-0.702445	-0.040631
-0.652406	0.0358375
-0.712394	-0.0379875
-0.662409	0.0373502
-0.722344	-0.0376791
-0.672367	0.0368655
-0.732381	-0.0362546
-0.682408	0.0373942
-0.742392	-0.0368274
-0.692392	0.0303304
-0.752422	-0.0449926
-0.702391	0.0394943
-0.762417	-0.0441996
-0.71244	0.0313584
-0.772382	-0.0406163
-0.722363	0.0343249
-0.782366	-0.0392358
-0.73237	0.0332088
-0.79235	-0.0399554
-0.742384	0.0312409
-0.802395	-0.038854
-0.752399	0.0350886
-0.812383	-0.0379728
-0.762352	0.0362487
-0.822363	-0.0389568
-0.772409	0.0332675
-0.832515	-0.0395736
-0.782377	0.032592
-0.842476	-0.0426723
-0.792457	0.0304919
-0.852494	-0.0363868
-0.802364	0.0330032
-0.862516	-0.0357259
-0.812402	0.033341
-0.872515	-0.0337874
-0.822386	0.030815
-0.882538	-0.0322307
-0.832454	0.0258953
-0.892495	-0.0318048
-0.842472	0.0286562
-0.902433	-0.0272963
-0.852509	0.032592
-0.912436	-0.0273551
-0.862474	0.0277163
-0.922454	-0.0274872
-0.872451	0.0265121
-0.93245	-0.0220388
-0.882492	0.0363515
-0.942495	-0.0132862
-0.89243	0.0296549
-0.952418	-0.0197185
-0.902429	0.0289206
-0.962436	-0.0195863
-0.91244	0.0294199
-0.972466	-0.0157387
-0.922443	0.0281569
-0.982423	-0.0183234
-0.93245	0.0335759
-0.992441	-0.017031
-0.942468	0.0290087
-1.00245	-0.0174128
-0.95241	0.0306829
-1.01243	-0.0178828
-0.962424	0.0319899
-1.02239	-0.0168988
-0.972424	0.0294493
-1.03245	-0.0228319
-0.982396	0.0275989
-1.0424	-0.0207612
-0.992441	0.0278338
-1.05241	-0.0242123
-1.00239	0.0276429
-1.06241	-0.0239333
-1.0124	0.0290968
-1.07246	-0.0246529
-1.0225	0.0272464
-1.08243	-0.0253872
-1.03242	0.0244708
-1.09247	-0.0238746
-1.04242	0.0290821
-1.10244	-0.0259306
-1.05247	0.0285094
-1.11247	-0.0290439
-1.06244	0.0288031
-1.12246	-0.0297782
-1.0724	0.0358816