File: VFSWV_data_prep/Example_data/CoPc_VFSWV_txt_data/CoPc_CNT_VFSWV_scans_53_52_C02.txt
Ewe/V	<I>/mA
-0.122501	0.018527
-0.0724667	0.0181295
-0.132412	0.014464
-0.0825079	0.0184541
-0.142469	0.00764832
-0.0924804	0.0226733
-0.152449	0.0158767
-0.102468	0.0237233
-0.162425	0.00990111
-0.112494	0.0188359
-0.172482	0.00665557
-0.122463	0.0172322
-0.182439	0.0108748
-0.132462	0.0212414
-0.192438	0.00352457
-0.142499	0.0176522
-0.202422	0.0030282
-0.152453	0.0206114
-0.212414	0.00726649
-0.162437	0.019065
-0.222428	0.00726649
-0.17247	0.0232078
-0.232473	0.00839289
-0.18242	0.0230933
-0.242446	0.00419277
-0.192446	0.0174804
-0.252384	0.00572009
-0.202418	0.0271598
-0.262395	0.0141012
-0.212471	0.0253461
-0.272379	0.00522371
-0.222425	0.0195614
-0.28242	0.00627374
-0.232401	0.0162204
-0.292415	0.00810651
-0.242408	0.0193132
-0.302426	0.00539553
-0.252426	0.0229978
-0.312433	0.00688466
-0.262398	0.0236278
-0.322401	0.0081447
-0.272394	0.0182441
-0.332382	0.00722831
-0.282389	0.0197523
-0.342358	0.0030282
-0.292423	0.0238951
-0.352376	0.00541462
-0.302395	0.0252124
-0.362379	-0.00336743
-0.312376	0.0222151
-0.372356	0.000603585
-0.322409	0.030138
-0.382401	-0.00155375
-0.332435	0.0266252
-0.392373	0.00258909
-0.3424	0.0240288
-0.402395	-0.0067657
-0.352384	0.0233033
-0.412337	0.0007945
-0.362368	0.0243342
-0.422386	-0.000580083
-0.372363	0.0230551
-0.432488	-0.00266105
-0.382378	0.0232842
-0.442472	-0.00201194
-0.392362	0.0293171
-0.452456	-0.0110804
-0.402388	0.0280189
-0.462505	-0.0134095
-0.412364	0.0304626
-0.472455	-0.0161396
-0.422394	0.0315126
-0.482423	-0.0167123
-0.432427	0.0292407
-0.492411	-0.0217334
-0.442469	0.0329635
-0.502437	-0.0216952
-0.45246	0.0298516
-0.512467	-0.028549
-0.462444	0.0271598
-0.52242	-0.0361283
-0.472478	0.0311499
-0.532385	-0.035441
-0.482465	0.0341472
-0.54243	-0.0465331
-0.492507	0.0344336
-0.552437	-0.0526997
-0.502441	0.0379464
-0.562368	-0.0558498
-0.512482	0.0432729
-0.572386	-0.058828
-0.522474	0.0427383
-0.58245	-0.0615008
-0.532427	0.0457548
-0.592449	-0.0650136
-0.542445	0.0436356
-0.602384	-0.0676101
-0.552449	0.0457548
-0.612432	-0.067591
-0.562425	0.0465757
-0.622394	-0.0638872
-0.572394	0.0489049
-0.632412	-0.0687556
-0.582412	0.0485421
-0.642392	-0.0578162
-0.592445	0.046633
-0.652376	-0.0642118
-0.602449	0.0417074
-0.66239	-0.0630472
-0.612425	0.0490576
-0.672397	-0.0613099
-0.622416	0.0419556
-0.682416	-0.0627227
-0.632435	0.0420511
-0.692357	-0.06572
-0.642369	0.0379846
-0.702376	-0.0569952
-0.652399	0.0387864
-0.712387	-0.0608135
-0.662383	0.0426047
-0.722325	-0.0604699
-0.672432	0.0402946
-0.732374	-0.0648036
-0.6824	0.0338608
-0.742338	-0.0654527
-0.692346	0.0383091
-0.752406	-0.0663309
-0.702341	0.0357891
-0.762325	-0.0658918
-0.712383	0.0376219
-0.772382	-0.0672855
-0.722355	0.03682
-0.782393	-0.0666173
-0.732381	0.0344718
-0.79235	-0.0653
-0.742342	0.0314935
-0.802322	-0.0657009
-0.752391	0.0352545
-0.812348	-0.0620163
-0.762371	0.031799
-0.822351	-0.0679155
-0.77239	0.0291644
-0.832393	-0.0672855
-0.782358	0.0299853
-0.842384	-0.0680683
-0.792319	0.0252888
-0.852418	-0.0682592
-0.802349	0.0279234
-0.862421	-0.0627227
-0.812291	0.0225587
-0.872458	-0.0614626
-0.822393	0.0245442
-0.882507	-0.0582935
-0.832461	0.0260143
-0.892453	-0.0588471
-0.842483	0.0206114
-0.902418	-0.0574725
-0.852479	0.0213369
-0.912436	-0.0542652
-0.862474	0.0188168
-0.922435	-0.0520124
-0.87242	0.0198096
-0.932415	-0.0511342
-0.882412	0.0190077
-0.942373	-0.0466668
-0.892384	0.0145403
-0.952395	-0.0497405
-0.902425	0.0131657
-0.962379	-0.0485377
-0.912482	0.0152467
-0.97245	-0.0446431
-0.922485	0.0118866
-0.982392	-0.0445858
-0.932427	0.0133948
-0.992388	-0.0475641
-0.942353	0.017194
-1.00235	-0.044624
-0.952406	0.0173849
-1.01236	-0.0475641
-0.962379	0.0181104
-1.02238	-0.0436312
-0.972443	0.0160676
-1.0324	-0.0475641
-0.982446	0.0176522
-1.04238	-0.0486523
-0.992365	0.0189886
-1.05238	-0.0462659
-1.00241	0.0201914
-1.0624	-0.0491868
-1.01237	0.0154185
-1.07238	-0.0524897
-1.02239	0.0143876
-1.08236	-0.0524515
-1.03239	0.0183013
-1.09235	-0.0571862
-1.04241	0.0184732
-1.10234	-0.0547806
-1.05239	0.0157431
-1.11238	-0.0591526
-1.06239	0.0139485
-1.1224	-0.0617681
-1.07239	0.0166404