File: VFSWV_data_prep/Example_data/CoPc_VFSWV_txt_data/CoPc_CNT_VFSWV_scans_23_22_C02.txt
Ewe/V	<I>/mA
-0.122364	-0.0280561
-0.0723447	0.0824867
-0.132279	-0.0471441
-0.0823516	0.0764729
-0.14229	-0.0581216
-0.0923355	0.0727501
-0.152293	-0.0654718
-0.102381	0.068359
-0.162391	-0.0671901
-0.112269	0.0720819
-0.17239	-0.0701492
-0.122341	0.0713182
-0.182394	-0.0743493
-0.132287	0.0670226
-0.192393	-0.0739675
-0.142305	0.0677863
-0.202361	-0.0791222
-0.152453	0.066259
-0.21238	-0.0877133
-0.162441	0.0715091
-0.222406	-0.0873315
-0.172421	0.0819139
-0.232386	-0.0921998
-0.182401	0.0635862
-0.242416	-0.090577
-0.192347	0.0713182
-0.252342	-0.0986909
-0.202377	0.0822958
-0.26238	-0.0923907
-0.212376	0.0836322
-0.272409	-0.09745
-0.222394	0.0814367
-0.282374	-0.108046
-0.23234	0.0757092
-0.29237	-0.112341
-0.242393	0.0901233
-0.302392	-0.108046
-0.252396	0.0841095
-0.312368	-0.117305
-0.262383	0.0882141
-0.322344	-0.131624
-0.272341	0.0867823
-0.332328	-0.148806
-0.282374	0.092987
-0.342385	-0.154247
-0.292381	0.100242
-0.352369	-0.171047
-0.302338	0.0916506
-0.362334	-0.191952
-0.312364	0.108069
-0.37239	-0.210376
-0.322413	0.115133
-0.382309	-0.241781
-0.33234	0.116469
-0.392335	-0.296096
-0.342324	0.13327
-0.402354	-0.349075
-0.352342	0.146061
-0.412318	-0.438614
-0.362303	0.187012
-0.422348	-0.542853
-0.372329	0.228441
-0.432359	-0.697016
-0.382332	0.293829
-0.442316	-0.874853
-0.392331	0.386518
-0.452319	-1.09202
-0.402361	0.51968
-0.462322	-1.36121
-0.41228	0.688926
-0.472306	-1.65531
-0.422333	0.913823
-0.482282	-1.96469
-0.432294	1.17022
-0.492282	-2.30461
-0.442301	1.44638
-0.502308	-2.63069
-0.452315	1.7191
-0.512292	-2.95372
-0.462272	1.97893
-0.522245	-3.24267
-0.472337	2.20116
-0.532301	-3.5089
-0.482313	2.3789
-0.542316	-3.7315
-0.492247	2.5343
-0.552262	-3.91392
-0.502304	2.63463
-0.562257	-4.03639
-0.51228	2.70469
-0.572363	-4.12001
-0.52226	2.7508
-0.582351	-4.12431
-0.532252	2.74431
-0.592335	-4.07591
-0.542243	2.71615
-0.602418	-3.96251
-0.552292	2.65525
-0.612326	-3.78887
-0.56223	2.5637
-0.622451	-3.56751
-0.572356	2.43064
-0.632378	-3.28906
-0.582362	2.27972
-0.64235	-2.98999
-0.592411	2.10818
-0.652346	-2.6746
-0.602399	1.91717
-0.662406	-2.37907
-0.612379	1.71671
-0.67239	-2.09269
-0.622424	1.5153
-0.682359	-1.85501
-0.632397	1.33107
-0.692339	-1.65655
-0.642396	1.15953
-0.702361	-1.49494
-0.65238	1.01787
-0.712322	-1.37133
-0.662303	0.88824
-0.722317	-1.28064
-0.672344	0.775792
-0.732332	-1.20848
-0.682389	0.697994
-0.742297	-1.15559
-0.692327	0.619337
-0.752296	-1.12982
-0.702334	0.575045
-0.762318	-1.10968
-0.712284	0.53524
-0.772344	-1.08868
-0.722321	0.497057
-0.782339	-1.07608
-0.73232	0.482357
-0.79232	-1.06443
-0.742327	0.460974
-0.802296	-1.06166
-0.752368	0.443028
-0.812333	-1.05651
-0.76231	0.436728
-0.822302	-1.05154
-0.772313	0.423269
-0.832328	-1.04563
-0.782301	0.409427
-0.842319	-1.03274
-0.792297	0.407327
-0.852311	-1.01327
-0.8023	0.39845
-0.862318	-0.994842
-0.812272	0.386613
-0.872329	-0.981383
-0.822321	0.372294
-0.882309	-0.959809
-0.83232	0.352153
-0.892251	-0.928118
-0.842316	0.340507
-0.902265	-0.894135
-0.852303	0.327334
-0.912306	-0.874662
-0.86231	0.308625
-0.922275	-0.85242
-0.872294	0.294211
-0.932278	-0.829988
-0.882309	0.283042
-0.942308	-0.805169
-0.8923	0.278556
-0.952303	-0.788559
-0.902322	0.264523
-0.96228	-0.774241
-0.912261	0.261087
-0.972256	-0.76355
-0.922313	0.248868
-0.982435	-0.759254
-0.932244	0.260514
-0.992361	-0.760209
-0.942289	0.259846
-1.00231	-0.754958
-0.952277	0.264428
-1.01242	-0.754195
-0.96228	0.271492
-1.02233	-0.764695
-0.972313	0.273019
-1.03235	-0.7646
-0.982335	0.279128
-1.04246	-0.77825
-0.992403	0.283519
-1.05238	-0.780064
-1.00241	0.285524
-1.06235	-0.794478
-1.01234	0.287147
-1.07234	-0.804501
-1.02236	0.300702
-1.08243	-0.822828
-1.03237	0.312347
-1.09232	-0.843161
-1.04238	0.318648
-1.10233	-0.872753
-1.05239	0.325234
-1.11232	-0.894517
-1.06237	0.341557
-1.12235	-0.913704
-1.07234	0.345853