File: VFSWV_data_prep/Example_data/CoPc_VFSWV_txt_data/CoPc_CNT_VFSWV_scans_22_21_C02.txt
Ewe/V	<I>/mA
-0.122284	-0.0107592
-0.0723371	0.0949916
-0.132287	-0.0509623
-0.0823134	0.0818185
-0.142335	-0.0587898
-0.0923127	0.086305
-0.152316	-0.0638491
-0.102369	0.0759956
-0.16241	-0.076163
-0.112303	0.0778093
-0.17236	-0.0725356
-0.122329	0.0811503
-0.182371	-0.0789313
-0.132294	0.0822003
-0.192362	-0.0763539
-0.142358	0.0832503
-0.202396	-0.0830359
-0.152422	0.0777138
-0.212395	-0.0831314
-0.162426	0.0864004
-0.222421	-0.0944908
-0.172409	0.0845867
-0.232378	-0.0994546
-0.182447	0.0855413
-0.242389	-0.0980227
-0.192354	0.0835367
-0.252419	-0.11005
-0.202381	0.0844913
-0.262361	-0.114823
-0.212349	0.090696
-0.272387	-0.110909
-0.222402	0.0834413
-0.282351	-0.126278
-0.232378	0.0897414
-0.292377	-0.127042
-0.242423	0.0926051
-0.302411	-0.137924
-0.252396	0.0859231
-0.312349	-0.147469
-0.262387	0.0957552
-0.322379	-0.155201
-0.272329	0.0983326
-0.33237	-0.159783
-0.282374	0.0960416
-0.342343	-0.178016
-0.292408	0.0983326
-0.352342	-0.197489
-0.302365	0.108069
-0.362395	-0.211426
-0.31238	0.109215
-0.372337	-0.239586
-0.322398	0.128402
-0.382355	-0.283591
-0.332351	0.134129
-0.392381	-0.33027
-0.342331	0.15217
-0.402331	-0.403581
-0.352384	0.173266
-0.412284	-0.495602
-0.362315	0.211545
-0.422314	-0.607668
-0.372352	0.263473
-0.432382	-0.768895
-0.38234	0.337644
-0.442293	-0.961528
-0.392312	0.439878
-0.452327	-1.20485
-0.402338	0.584018
-0.462349	-1.47356
-0.412322	0.770828
-0.472367	-1.77998
-0.422341	1.00365
-0.482336	-2.11341
-0.432248	1.27704
-0.492282	-2.45066
-0.442289	1.55606
-0.502273	-2.78657
-0.452311	1.8368
-0.512353	-3.1138
-0.462349	2.08995
-0.522272	-3.41143
-0.472344	2.31351
-0.532317	-3.67623
-0.48229	2.49459
-0.54227	-3.90151
-0.492312	2.62145
-0.552281	-4.07772
-0.50233	2.73075
-0.562295	-4.21261
-0.512295	2.79366
-0.572363	-4.29365
-0.522291	2.83251
-0.582397	-4.30701
-0.532332	2.82001
-0.592396	-4.26482
-0.542304	2.79414
-0.602372	-4.14855
-0.552311	2.73591
-0.612395	-3.97587
-0.562295	2.64599
-0.622386	-3.74716
-0.572398	2.5301
-0.632374	-3.4751
-0.582347	2.37928
-0.642392	-3.18062
-0.592377	2.1961
-0.652372	-2.8596
-0.602372	2.01903
-0.662375	-2.54955
-0.612368	1.81599
-0.672394	-2.25497
-0.622394	1.6076
-0.682427	-2.00287
-0.632351	1.42557
-0.692426	-1.78485
-0.642362	1.25756
-0.70238	-1.6177
-0.652334	1.08641
-0.712387	-1.47728
-0.662383	0.951433
-0.722333	-1.37839
-0.672336	0.843089
-0.732316	-1.30746
-0.682378	0.754982
-0.742285	-1.24504
-0.692369	0.683389
-0.752353	-1.20638
-0.702326	0.622106
-0.762318	-1.17831
-0.71236	0.584114
-0.772321	-1.16561
-0.722333	0.555954
-0.782271	-1.14929
-0.732332	0.526649
-0.792289	-1.13984
-0.742251	0.510039
-0.802281	-1.14261
-0.752334	0.493334
-0.812326	-1.13154
-0.762307	0.477775
-0.822268	-1.12275
-0.772352	0.469374
-0.832343	-1.11875
-0.782316	0.459256
-0.842342	-1.10233
-0.792308	0.444365
-0.852296	-1.0945
-0.80233	0.435583
-0.862299	-1.06643
-0.812371	0.416968
-0.872267	-1.04677
-0.822317	0.40265
-0.88232	-1.02357
-0.832286	0.390431
-0.892331	-0.992647
-0.842316	0.378499
-0.9023	-0.960669
-0.852303	0.35769
-0.912295	-0.936613
-0.862295	0.346712
-0.922283	-0.909026
-0.872237	0.331343
-0.932232	-0.887548
-0.882221	0.315402
-0.94227	-0.864734
-0.892289	0.299747
-0.952254	-0.852993
-0.902296	0.304615
-0.962295	-0.833329
-0.912257	0.291538
-0.972313	-0.823688
-0.922264	0.297838
-0.982396	-0.823497
-0.932271	0.291729
-0.9924	-0.817578
-0.942277	0.289151
-1.00236	-0.813855
-0.952277	0.295165
-1.01238	-0.812328
-0.962226	0.308434
-1.02237	-0.817387
-0.972256	0.30977
-1.03239	-0.82006
-0.98229	0.320366
-1.04237	-0.823783
-0.992399	0.318648
-1.05239	-0.839247
-1.00233	0.332202
-1.06236	-0.85032
-1.01241	0.339457
-1.07232	-0.874662
-1.02233	0.342989
-1.08235	-0.882776
-1.03237	0.348621
-1.09235	-0.902249
-1.04234	0.364849
-1.10235	-0.9285
-1.05238	0.373154
-1.11233	-0.954559
-1.06232	0.385181
-1.12233	-0.986346
-1.07232	0.394918