File: VFSWV_data_prep/Example_data/CoPc_VFSWV_txt_data/CoPc_CNT_VFSWV_scans_06_5_C02.txt
Ewe/V	<I>/mA
-0.122331	-0.779724
-0.0723879	1.73552
-0.132337	-1.99361
-0.0823451	1.60627
-0.142306	-2.03886
-0.0923405	1.58718
-0.152294	-2.06387
-0.102366	1.59558
-0.162312	-2.08277
-0.112366	1.59825
-0.172338	-2.10568
-0.122315	1.61123
-0.182322	-2.12515
-0.132295	1.61524
-0.19231	-2.15971
-0.142356	1.62211
-0.202279	-2.16925
-0.15234	1.63624
-0.212278	-2.19846
-0.162324	1.65037
-0.222357	-2.21908
-0.172346	1.65514
-0.232337	-2.23626
-0.182395	1.66984
-0.242329	-2.24753
-0.192291	1.66946
-0.252324	-2.27177
-0.202271	1.67423
-0.262282	-2.29354
-0.212335	1.68836
-0.272445	-2.31396
-0.222285	1.69333
-0.282444	-2.34336
-0.232292	1.70383
-0.292447	-2.37277
-0.24234	1.72177
-0.302374	-2.41152
-0.252279	1.72349
-0.312362	-2.46841
-0.262285	1.73991
-0.322437	-2.50946
-0.272376	1.76893
-0.332352	-2.57284
-0.282364	1.80138
-0.342348	-2.65284
-0.292432	1.84758
-0.352416	-2.73932
-0.30237	1.90314
-0.362415	-2.87315
-0.312335	1.96843
-0.372368	-3.0024
-0.322365	2.04518
-0.382433	-3.1727
-0.332303	2.14102
-0.392352	-3.37048
-0.342348	2.26454
-0.402351	-3.60493
-0.352355	2.39188
-0.412369	-3.87259
-0.362354	2.56542
-0.422349	-4.16564
-0.372346	2.72197
-0.432341	-4.4879
-0.382326	2.91231
-0.442306	-4.82219
-0.392352	3.08452
-0.452355	-5.19009
-0.402316	3.24374
-0.462327	-5.55741
-0.4124	3.36058
-0.47233	-5.94802
-0.422349	3.45012
-0.482307	-6.31171
-0.432375	3.50567
-0.492271	-6.67674
-0.442317	3.52362
-0.502358	-7.04024
-0.452343	3.4862
-0.51235	-7.39075
-0.462346	3.4274
-0.522292	-7.7281
-0.472277	3.34359
-0.532337	-8.03204
-0.482356	3.25959
-0.542309	-8.31879
-0.492348	3.1479
-0.552324	-8.59447
-0.502309	3.02953
-0.562323	-8.8186
-0.512319	2.91021
-0.572223	-9.00761
-0.522342	2.8138
-0.582226	-9.16454
-0.532337	2.71338
-0.592241	-9.27011
-0.542275	2.64331
-0.602297	-9.30448
-0.552301	2.60399
-0.612331	-9.30009
-0.562274	2.60265
-0.622376	-9.20119
-0.572338	2.61926
-0.632387	-9.0351
-0.58228	2.6647
-0.642374	-8.80447
-0.592329	2.72884
-0.652339	-8.51524
-0.602278	2.79089
-0.662384	-8.19355
-0.612392	2.82564
-0.672387	-7.83406
-0.622357	2.88807
-0.682367	-7.48048
-0.632367	2.89933
-0.692374	-7.12157
-0.642401	2.87718
-0.702381	-6.7888
-0.652354	2.83308
-0.712331	-6.49269
-0.662365	2.77104
-0.72233	-6.2216
-0.672353	2.69562
-0.732325	-5.99765
-0.682394	2.60322
-0.742328	-5.80368
-0.692328	2.52208
-0.752309	-5.64542
-0.702335	2.44247
-0.762323	-5.51388
-0.712342	2.36229
-0.772318	-5.42453
-0.722307	2.29929
-0.782341	-5.34129
-0.732333	2.23934
-0.792294	-5.28879
-0.742313	2.18951
-0.802331	-5.24812
-0.75232	2.14407
-0.812289	-5.2256
-0.762277	2.10417
-0.822326	-5.19562
-0.772311	2.07935
-0.832314	-5.18226
-0.782291	2.04976
-0.842359	-5.17042
-0.792302	2.02017
-0.852354	-5.15019
-0.802297	1.99497
-0.862296	-5.13052
-0.812285	1.98352
-0.87233	-5.09444
-0.822292	1.96748
-0.882295	-5.0742
-0.832245	1.95068
-0.892347	-5.05225
-0.842313	1.94132
-0.902282	-5.01349
-0.852263	1.92338
-0.912334	-4.97798
-0.862277	1.92548
-0.922322	-4.94132
-0.872303	1.92204
-0.932321	-4.9041
-0.882283	1.92051
-0.942275	-4.87107
-0.892279	1.92624
-0.952377	-4.86668
-0.902316	1.95201
-0.962372	-4.83346
-0.912288	1.96328
-0.972387	-4.81456
-0.922288	1.97893
-0.982359	-4.80921
-0.932268	2.00852
-0.992393	-4.80539
-0.942294	2.0322
-1.00242	-4.81341
-0.952427	2.04709
-1.01239	-4.80425
-0.962327	2.07019
-1.02237	-4.81704
-0.972345	2.09692
-1.03233	-4.82525
-0.982401	2.12307
-1.04234	-4.83098
-0.992332	2.14522
-1.05235	-4.83938
-1.00239	2.16011
-1.0624	-4.85312
-1.01241	2.17367
-1.0724	-4.87813
-1.02236	2.18245
-1.08236	-4.90677
-1.0324	2.18951
-1.09234	-4.93789
-1.04234	2.20307
-1.1023	-4.98065
-1.05234	2.21471
-1.11231	-5.0217
-1.06237	2.2317
-1.12233	-5.0679
-1.07234	2.24965