File: VFSWV_data_prep/Example_data/CoPc_VFSWV_txt_data/CoPc_CNT_VFSWV_scans_64_63_C02.txt
Ewe/V	<I>/mA
-0.122611	0.0158542
-0.0727031	0.0272419
-0.132641	0.0230418
-0.0826451	0.0276902
-0.142652	0.0230086
-0.0926367	0.0297819
-0.152636	0.0250506
-0.102663	0.0284123
-0.162616	0.0237972
-0.11262	0.0319816
-0.17263	0.0247351
-0.122646	0.0273166
-0.182599	0.0236976
-0.132645	0.0230086
-0.192633	0.020892
-0.142633	0.0258142
-0.202613	0.020701
-0.152628	0.0271921
-0.212604	0.0201698
-0.162639	0.0285036
-0.222646	0.0194144
-0.172634	0.0257312
-0.232614	0.0188832
-0.182595	0.0264451
-0.24256	0.0181195
-0.192644	0.0256067
-0.252552	0.0184599
-0.202609	0.0244446
-0.262593	0.0203773
-0.212597	0.0264285
-0.272691	0.0200453
-0.222619	0.026636
-0.282714	0.016725
-0.232557	0.0239632
-0.292648	0.0182358
-0.242621	0.0236063
-0.302651	0.0202777
-0.252609	0.0273498
-0.312623	0.0150981
-0.262601	0.0231912
-0.322661	0.0239632
-0.272684	0.026885
-0.332664	0.0176962
-0.28266	0.0253494
-0.342709	0.016833
-0.29269	0.0235565
-0.352666	0.016833
-0.302662	0.0220374
-0.362726	0.0166088
-0.312681	0.0241624
-0.372722	0.0161772
-0.322695	0.0252332
-0.382687	0.0173891
-0.332652	0.0235648
-0.392613	0.0155464
-0.342697	0.0256565
-0.402662	0.0151313
-0.352659	0.0235814
-0.412635	0.0138032
-0.362681	0.025117
-0.422634	0.0171816
-0.372676	0.0236976
-0.432607	0.013853
-0.382679	0.0155796
-0.442636	0.0104166
-0.392652	0.0200536
-0.452605	0.00953671
-0.402639	0.0238636
-0.462639	0.0110557
-0.412635	0.0268767
-0.472649	0.00971932
-0.42263	0.0298483
-0.482549	0.0109561
-0.432599	0.0209501
-0.492594	0.00286301
-0.442651	0.0237806
-0.502597	0.00702992
-0.452639	0.0205184
-0.512635	0.00882286
-0.462631	0.0313507
-0.522642	0.00771887
-0.472596	0.0359825
-0.532572	0.00229027
-0.482576	0.0293503
-0.542594	0.00463105
-0.492644	0.0325377
-0.552628	0.000223417
-0.502616	0.032546
-0.562577	0.00308713
-0.512589	0.033235
-0.572615	0.00102028
-0.522558	0.0351026
-0.582557	-0.0013952
-0.532595	0.0305207
-0.592556	-0.00472375
-0.542567	0.0353267
-0.602559	-0.0040514
-0.552551	0.0359078
-0.612554	-0.00769537
-0.562574	0.0355342
-0.622535	-0.0146015
-0.572584	0.0322721
-0.632591	-0.0157802
-0.582568	0.0238553
-0.642548	-0.0124765
-0.592583	0.0254656
-0.652559	-0.0150995
-0.602525	0.0272087
-0.662535	-0.0139125
-0.612593	0.0240877
-0.672561	-0.013041
-0.622515	0.0251585
-0.682667	-0.0147011
-0.632538	0.0224608
-0.692674	-0.0159047
-0.642521	0.0265447
-0.702631	-0.0171166
-0.652574	0.0249593
-0.712619	-0.0136801
-0.662535	0.0250672
-0.722664	-0.0157636
-0.672561	0.032712
-0.732637	-0.0161537
-0.682663	0.0236395
-0.742636	-0.0145932
-0.692697	0.023847
-0.752616	-0.0199139
-0.702631	0.0201947
-0.762627	-0.0203787
-0.71265	0.0217054
-0.772592	-0.0206443
-0.722611	0.0235316
-0.78266	-0.0233503
-0.732618	0.0209501
-0.792579	-0.0239314
-0.74259	0.020286
-0.802608	-0.0192332
-0.752574	0.0169326
-0.812558	-0.0185941
-0.762612	0.018518
-0.822599	-0.020993
-0.772561	0.0205018
-0.832598	-0.0210843
-0.782598	0.0179369
-0.842579	-0.0168095
-0.792605	0.0165258
-0.85257	-0.0229104
-0.802597	0.0135957
-0.862588	-0.0175814
-0.812615	0.0104249
-0.872607	-0.0174486
-0.822614	0.0141353
-0.882583	-0.0225286
-0.832648	0.0153886
-0.892517	-0.0164691
-0.842582	0.015895
-0.902589	-0.0159379
-0.852612	0.0136621
-0.912516	-0.0161039
-0.862589	0.0101178
-0.922565	-0.0179051
-0.872584	0.0110806
-0.932575	-0.013954
-0.882556	0.0119688
-0.94254	-0.0113476
-0.892567	0.0119107
-0.952604	-0.0171747
-0.902566	0.0118194
-0.962501	-0.0140702
-0.912554	0.00663149
-0.972588	-0.011331
-0.922534	0.0140688
-0.982579	-0.0186356
-0.932595	0.0116866
-0.992552	-0.0119619
-0.942559	0.0102672
-1.00253	-0.0156972
-0.952562	0.0100098
-1.01254	-0.0213831
-0.962504	0.00864024
-1.02256	-0.0163446
-0.972534	0.00755286
-1.03256	-0.0154066
-0.982556	0.0130894
-1.04254	-0.0149833
-0.992548	0.0101759
-1.0525	-0.0177142
-1.00255	0.0124834
-1.06248	-0.01837
-1.01253	0.015206
-1.07248	-0.0152987
-1.0225	0.0135708
-1.08249	-0.0122192
-1.03251	0.014625
-1.0926	-0.015996
-1.04252	0.0127241
-1.10259	-0.0141035
-1.0525	0.0162436
-1.11261	-0.0187684
-1.06252	0.014874
-1.12255	-0.019366
-1.07247	0.0131475