File: VFSWV_data_prep/Example_data/CoPc_VFSWV_txt_data/CoPc_CNT_VFSWV_scans_69_68_C02.txt
Ewe/V	<I>/mA
-0.122569	0.0134487
-0.0724888	0.0222554
-0.132564	0.0158212
-0.0824613	0.0242933
-0.142556	0.0185596
-0.0926209	0.0262453
-0.152605	0.01503
-0.10249	0.0236197
-0.162558	0.0143535
-0.112581	0.0236497
-0.17255	0.0137426
-0.122538	0.0215089
-0.182541	0.0136722
-0.132519	0.0195612
-0.192548	0.012785
-0.142583	0.0199258
-0.202509	0.0147769
-0.152513	0.0232979
-0.212547	0.0159563
-0.162562	0.0290082
-0.222561	0.0172755
-0.172569	0.0212215
-0.232545	0.0148983
-0.182534	0.0217449
-0.242518	0.0165265
-0.19248	0.0279399
-0.252532	0.018373
-0.202525	0.0245163
-0.262539	0.0184897
-0.212509	0.0285835
-0.2725	0.0177998
-0.222557	0.029952
-0.282499	0.0220844
-0.232572	0.0276654
-0.292491	0.0224401
-0.242567	0.0297075
-0.302475	0.0275184
-0.252463	0.0273908
-0.312478	0.0175656
-0.262501	0.0273522
-0.3225	0.0207304
-0.272527	0.0273221
-0.332465	0.0187913
-0.282534	0.0283432
-0.342491	0.0234303
-0.292548	0.0302052
-0.352425	0.0197008
-0.302536	0.027704
-0.362512	0.0176372
-0.312489	0.0271334
-0.372485	0.0231887
-0.322466	0.0282617
-0.382461	0.0196639
-0.332465	0.0310117
-0.392426	0.020476
-0.342445	0.0295573
-0.402452	0.02494
-0.352479	0.0353749
-0.412482	0.0164819
-0.362463	0.0288752
-0.422481	0.0191075
-0.372527	0.0329037
-0.432453	0.0207429
-0.382453	0.0263869
-0.442453	0.0156633
-0.392491	0.0271548
-0.452459	0.0148254
-0.402421	0.0293814
-0.462482	0.0186784
-0.412466	0.0288108
-0.472496	0.0164175
-0.422485	0.0310246
-0.482442	0.01665
-0.432472	0.032376
-0.492403	0.0120531
-0.44246	0.027009
-0.502528	0.0169396
-0.452437	0.0267086
-0.512535	0.00871701
-0.462428	0.0246536
-0.522484	0.0137228
-0.472427	0.0252886
-0.532507	0.00986421
-0.482472	0.0263869
-0.542544	0.0086312
-0.492567	0.0249153
-0.552517	0.00695073
-0.502555	0.0299606
-0.562478	0.00935925
-0.512562	0.0299263
-0.572504	0.00701894
-0.522519	0.0298276
-0.582503	0.00792932
-0.53256	0.0290597
-0.592506	0.00503386
-0.542521	0.0278842
-0.602562	0.00409173
-0.552574	0.0296303
-0.612531	0.00820647
-0.562493	0.034032
-0.622519	0.00783923
-0.57253	0.0369751
-0.632503	0.00850421
-0.582491	0.0298963
-0.642498	0.00716867
-0.592521	0.030913
-0.652486	0.00816529
-0.602494	0.0305741
-0.662497	0.00779719
-0.612562	0.0296045
-0.672473	0.00629261
-0.622545	0.037284
-0.682487	0.00784052
-0.632476	0.0320457
-0.692502	0.00822449
-0.64246	0.0322301
-0.702486	0.00745225
-0.652471	0.034105
-0.712523	0.00629476
-0.662474	0.0335258
-0.722465	0.00621968
-0.672492	0.0277383
-0.732491	0.00212296
-0.682518	0.0287379
-0.742445	0.00622397
-0.692452	0.0281373
-0.752444	0.00600774
-0.702474	0.028326
-0.762413	0.00648739
-0.712451	0.0294587
-0.772435	0.00456838
-0.722461	0.0302738
-0.782438	0.00376396
-0.732503	0.0297461
-0.792414	0.0038429
-0.742414	0.0289095
-0.802463	0.00424232
-0.752409	0.0241603
-0.812432	0.0042479
-0.762455	0.0291798
-0.822435	0.0044461
-0.772484	0.0316252
-0.832487	0.00239281
-0.78238	0.0252543
-0.842479	0.000462218
-0.792403	0.0257648
-0.852383	0.000824312
-0.802398	0.0258678
-0.86242	0.00284714
-0.812466	0.0225815
-0.872461	0.0029381
-0.822446	0.0237269
-0.882441	0.00937384
-0.832426	0.0286006
-0.892402	0.0103975
-0.842456	0.0276868
-0.902516	0.0118055
-0.852436	0.0293771
-0.912493	0.0161884
-0.862431	0.0279442
-0.922564	0.00877836
-0.872419	0.0310889
-0.932571	0.0105562
-0.882407	0.0271891
-0.942532	0.00839052
-0.892421	0.0257176
-0.952501	0.00677354
-0.902562	0.0268845
-0.962531	0.00268841
-0.9125	0.0255589
-0.97248	0.00840168
-0.922503	0.0271162
-0.98251	0.00652214
-0.932506	0.0257305
-0.992448	0.00848662
-0.942544	0.0273393
-1.00251	0.00853853
-0.952543	0.0298534
-1.0125	0.0119274
-0.962477	0.0317582
-1.02252	0.0129776
-0.972484	0.0346198
-1.03248	0.0118875
-0.982514	0.0310675
-1.0425	0.0120256
-0.992513	0.0284161
-1.05249	0.0192293
-1.00255	0.0315995
-1.06247	0.012779
-1.01246	0.032968
-1.07249	0.0101581
-1.0225	0.0269103
-1.08253	0.00962481
-1.03252	0.0286349
-1.09252	0.0115979
-1.04246	0.034534
-1.10251	0.00726949
-1.05248	0.0265842
-1.11243	0.00350655
-1.06249	0.0248038
-1.12248	0.00279395
-1.07253	0.0245635