File: VFSWV_data_prep/Example_data/CoPc_VFSWV_txt_data/CoPc_CNT_VFSWV_scans_15_14_C02.txt
Ewe/V	<I>/mA
-0.122419	-0.0651316
-0.0723881	0.212595
-0.132426	-0.192525
-0.0824103	0.199485
-0.142344	-0.205635
-0.0924362	0.195922
-0.152359	-0.208689
-0.10239	0.193885
-0.162389	-0.229435
-0.112397	0.190194
-0.172342	-0.220144
-0.122403	0.203176
-0.182403	-0.237326
-0.132433	0.201013
-0.192402	-0.240381
-0.14239	0.207886
-0.202386	-0.258327
-0.152401	0.204704
-0.212393	-0.255909
-0.162385	0.209031
-0.22238	-0.264945
-0.172411	0.211958
-0.232349	-0.268255
-0.182414	0.214249
-0.242394	-0.275891
-0.192387	0.215649
-0.252397	-0.290273
-0.20239	0.224177
-0.262366	-0.29651
-0.212358	0.225322
-0.272357	-0.306437
-0.222323	0.222268
-0.282414	-0.313565
-0.232364	0.225704
-0.29236	-0.330493
-0.24236	0.232577
-0.302378	-0.342838
-0.252367	0.250141
-0.312373	-0.362057
-0.262373	0.250778
-0.322376	-0.381276
-0.272361	0.254087
-0.332357	-0.404313
-0.282322	0.267833
-0.342325	-0.441859
-0.292325	0.274069
-0.352393	-0.478133
-0.302378	0.291633
-0.362339	-0.532353
-0.3124	0.308434
-0.372369	-0.593318
-0.322384	0.339362
-0.382376	-0.676556
-0.332353	0.377926
-0.392337	-0.790469
-0.342318	0.420182
-0.402305	-0.926781
-0.352324	0.490948
-0.412354	-1.09326
-0.362358	0.584114
-0.422323	-1.29805
-0.372357	0.706172
-0.432395	-1.56202
-0.382314	0.87074
-0.44247	-1.84164
-0.392291	1.07604
-0.452412	-2.17536
-0.40237	1.3269
-0.462415	-2.54293
-0.412328	1.60754
-0.472403	-2.91763
-0.422296	1.90028
-0.482425	-3.30672
-0.432444	2.1855
-0.492379	-3.68511
-0.442421	2.46042
-0.502412	-4.05383
-0.452401	2.68353
-0.512419	-4.38793
-0.462404	2.87636
-0.522407	-4.70485
-0.472449	3.02578
-0.532448	-4.97913
-0.482421	3.13205
-0.542417	-5.23368
-0.492417	3.19646
-0.552366	-5.42383
-0.502401	3.24979
-0.562396	-5.57007
-0.512415	3.26735
-0.57241	-5.66909
-0.522376	3.27626
-0.582402	-5.7186
-0.532402	3.26455
-0.59242	-5.70027
-0.54242	3.24049
-0.602412	-5.63371
-0.552389	3.19697
-0.612388	-5.49218
-0.562423	3.14211
-0.622376	-5.29197
-0.572353	3.06218
-0.632383	-5.04582
-0.582368	2.96609
-0.642432	-4.74087
-0.592413	2.83423
-0.652378	-4.41542
-0.602404	2.69193
-0.662392	-4.07279
-0.612384	2.51502
-0.672407	-3.73258
-0.622368	2.32945
-0.682371	-3.40332
-0.632341	2.14299
-0.692378	-3.10957
-0.642401	1.95055
-0.702351	-2.84585
-0.652309	1.77453
-0.71235	-2.6207
-0.662308	1.60894
-0.722391	-2.44455
-0.672372	1.45608
-0.732326	-2.30811
-0.682291	1.33008
-0.742294	-2.204
-0.692378	1.22011
-0.752339	-2.11783
-0.702339	1.13929
-0.762258	-2.06285
-0.712297	1.06293
-0.772311	-2.01347
-0.722368	1.00667
-0.782306	-1.98177
-0.732318	0.973197
-0.79239	-1.95925
-0.742336	0.933869
-0.802297	-1.94677
-0.752252	0.903831
-0.812331	-1.93595
-0.762285	0.880031
-0.822296	-1.92208
-0.772319	0.853176
-0.832352	-1.91406
-0.782303	0.845284
-0.842413	-1.8951
-0.792271	0.831284
-0.852427	-1.87626
-0.802301	0.816138
-0.862377	-1.85615
-0.812254	0.797556
-0.872475	-1.82942
-0.822319	0.778719
-0.882413	-1.79442
-0.832314	0.758355
-0.892409	-1.75662
-0.84242	0.746391
-0.902446	-1.7178
-0.852419	0.706299
-0.912396	-1.68255
-0.862411	0.696244
-0.922406	-1.65086
-0.872383	0.68148
-0.932413	-1.62349
-0.882409	0.66277
-0.942359	-1.58913
-0.892405	0.657298
-0.952446	-1.57258
-0.902419	0.641515
-0.962399	-1.55336
-0.912434	0.645079
-0.972372	-1.54089
-0.922414	0.639479
-0.98244	-1.54013
-0.932448	0.645461
-0.992389	-1.526
-0.942393	0.647497
-1.00238	-1.52562
-0.952362	0.658698
-1.0124	-1.53402
-0.96238	0.671425
-1.02234	-1.5358
-0.972372	0.690262
-1.03238	-1.54165
-0.982417	0.704517
-1.04239	-1.5568
-0.992359	0.714572
-1.05237	-1.57462
-1.00232	0.722208
-1.06237	-1.59587
-1.01241	0.729463
-1.07232	-1.61356
-1.02233	0.748427
-1.08233	-1.64818
-1.03241	0.750336
-1.09236	-1.6716
-1.0424	0.767264
-1.10233	-1.70037
-1.05233	0.785719
-1.11228	-1.73791
-1.06235	0.79921
-1.12234	-1.78399
-1.07235	0.829629