File: VFSWV_data_prep/Example_data/CoPc_VFSWV_txt_data/CoPc_CNT_VFSWV_scans_27_26_C02.txt
Ewe/V	<I>/mA
-0.122318	0.00333022
-0.0723485	0.0697145
-0.132306	-0.0214661
-0.0823096	0.0607034
-0.142297	-0.0203206
-0.0923012	0.054976
-0.1523	-0.0269644
-0.102346	0.0561978
-0.162399	-0.0304009
-0.112323	0.0528377
-0.172425	-0.0348301
-0.122329	0.0536777
-0.182428	-0.0330737
-0.132294	0.0563505
-0.192366	-0.0356701
-0.142271	0.0475685
-0.202365	-0.0360519
-0.152415	0.0565796
-0.212418	-0.0410921
-0.162441	0.0578015
-0.22236	-0.0417794
-0.17239	0.0559687
-0.232367	-0.0414739
-0.182348	0.0508522
-0.242416	-0.0475832
-0.192385	0.0527613
-0.252323	-0.0457504
-0.202415	0.0523795
-0.26238	-0.0566707
-0.21238	0.0618489
-0.272394	-0.0553725
-0.222409	0.0590233
-0.28234	-0.0622454
-0.232359	0.0571906
-0.292354	-0.0669037
-0.242393	0.0568851
-0.302342	-0.0656818
-0.252354	0.0625361
-0.312334	-0.070722
-0.262391	0.0576487
-0.322341	-0.0753803
-0.272325	0.0603979
-0.332351	-0.0831696
-0.282351	0.0684927
-0.342343	-0.0805731
-0.292374	0.0594815
-0.352312	-0.0912643
-0.302315	0.0655908
-0.362349	-0.102643
-0.312368	0.0722346
-0.372371	-0.113716
-0.322329	0.0743728
-0.382347	-0.13548
-0.332286	0.0820858
-0.392373	-0.142506
-0.342343	0.0829258
-0.402334	-0.179925
-0.35235	0.0927006
-0.412368	-0.230708
-0.362334	0.0989626
-0.422283	-0.28447
-0.372344	0.117978
-0.432344	-0.376108
-0.382382	0.14272
-0.442324	-0.491421
-0.392335	0.179834
-0.452323	-0.635293
-0.402369	0.254214
-0.462368	-0.828117
-0.412341	0.347609
-0.472306	-1.04156
-0.422321	0.474834
-0.482313	-1.28173
-0.432275	0.652767
-0.492305	-1.55183
-0.442308	0.868729
-0.502292	-1.83294
-0.45235	1.10516
-0.512272	-2.10549
-0.462326	1.34586
-0.522291	-2.37139
-0.472318	1.57458
-0.532324	-2.60499
-0.482271	1.77366
-0.54235	-2.80881
-0.492331	1.94335
-0.552243	-2.9688
-0.502262	2.07431
-0.562303	-3.08266
-0.512265	2.1645
-0.572413	-3.13757
-0.522253	2.2146
-0.582382	-3.12695
-0.53234	2.21864
-0.592362	-3.06021
-0.542316	2.19612
-0.602346	-2.93184
-0.552288	2.12846
-0.612353	-2.75505
-0.562269	2.02093
-0.622348	-2.53787
-0.572363	1.88875
-0.63234	-2.27784
-0.582385	1.73907
-0.642343	-2.00476
-0.592339	1.56373
-0.652311	-1.74878
-0.602357	1.37908
-0.662288	-1.51564
-0.61236	1.2123
-0.672344	-1.31594
-0.622432	1.04086
-0.682385	-1.15114
-0.632378	0.889653
-0.692323	-1.02965
-0.642343	0.760137
-0.702357	-0.936709
-0.652315	0.650399
-0.712299	-0.857976
-0.662341	0.557538
-0.722302	-0.820633
-0.672352	0.481478
-0.73232	-0.787032
-0.682309	0.431612
-0.742308	-0.753355
-0.692343	0.38793
-0.752288	-0.741976
-0.702288	0.360133
-0.762329	-0.732125
-0.712337	0.340813
-0.772271	-0.731972
-0.722283	0.319278
-0.782294	-0.727543
-0.732278	0.30095
-0.792297	-0.728689
-0.742304	0.295604
-0.802242	-0.721281
-0.75225	0.282698
-0.812257	-0.720976
-0.762337	0.276971
-0.822279	-0.717768
-0.772294	0.27048
-0.832297	-0.706237
-0.782271	0.264218
-0.842277	-0.700204
-0.79232	0.25765
-0.852311	-0.69188
-0.802269	0.255283
-0.862245	-0.675462
-0.812268	0.242148
-0.872294	-0.654156
-0.822302	0.236574
-0.882335	-0.638959
-0.832305	0.219697
-0.892266	-0.620097
-0.842297	0.206104
-0.902284	-0.5965
-0.852319	0.197092
-0.912287	-0.576186
-0.862333	0.184416
-0.922309	-0.560608
-0.872321	0.181208
-0.932282	-0.549382
-0.882324	0.164026
-0.942316	-0.52716
-0.892281	0.162422
-0.952269	-0.513796
-0.902223	0.15723
-0.962272	-0.50845
-0.912318	0.149517
-0.972241	-0.496079
-0.922336	0.141346
-0.982316	-0.496461
-0.932267	0.143255
-0.992419	-0.49081
-0.942273	0.146997
-1.00232	-0.488519
-0.952292	0.150891
-1.01238	-0.494246
-0.962272	0.148524
-1.02235	-0.485311
-0.972225	0.15532
-1.03237	-0.486151
-0.982312	0.152571
-1.04234	-0.495392
-0.992369	0.158681
-1.05236	-0.506617
-1.00231	0.162804
-1.06233	-0.513643
-1.01238	0.166164
-1.07235	-0.518225
-1.02236	0.171739
-1.08234	-0.525861
-1.03232	0.180445
-1.09236	-0.544342
-1.04235	0.179452
-1.10232	-0.552589
-1.05238	0.191518
-1.11225	-0.583747
-1.06232	0.194802
-1.12233	-0.589703
-1.07231	0.201904