File: VFSWV_data_prep/Example_data/CoPc_VFSWV_txt_data/CoPc_CNT_VFSWV_scans_70_69_C02.txt
Ewe/V	<I>/mA
-0.122467	0.0180306
-0.0723261	0.0271055
-0.132432	0.0203503
-0.0823788	0.0260205
-0.142431	0.0188699
-0.0924048	0.0290789
-0.152412	0.0217926
-0.10237	0.0265346
-0.162449	0.019908
-0.112506	0.026769
-0.172418	0.0213434
-0.122444	0.0341561
-0.182444	0.0248143
-0.132467	0.0277595
-0.192424	0.0236439
-0.142435	0.0245348
-0.202434	0.0215691
-0.152396	0.0289655
-0.212438	0.0181607
-0.162449	0.0257748
-0.222414	0.020708
-0.172429	0.0268257
-0.232405	0.0166814
-0.18244	0.0255631
-0.242412	0.0191436
-0.192458	0.0239639
-0.252369	0.0180128
-0.202385	0.0182365
-0.262453	0.0208229
-0.212411	0.0250867
-0.272387	0.0177286
-0.222406	0.0244062
-0.282417	0.0175029
-0.232444	0.0250187
-0.292378	0.0187553
-0.242447	0.0232381
-0.302438	0.0175925
-0.252369	0.0264401
-0.312399	0.0212429
-0.262422	0.0260734
-0.322425	0.0151665
-0.27241	0.0268825
-0.332367	0.018592
-0.282432	0.0250716
-0.342351	0.0165037
-0.292412	0.0249695
-0.352385	0.019271
-0.302339	0.0219527
-0.36243	0.0213722
-0.312376	0.0235065
-0.372391	0.0171365
-0.322383	0.0258806
-0.382436	0.0207242
-0.332382	0.0282548
-0.392328	0.0199519
-0.342416	0.0274079
-0.402388	0.0163328
-0.352373	0.0260394
-0.412342	0.0158822
-0.362411	0.0246217
-0.422421	0.0176458
-0.372379	0.0259714
-0.432329	0.018
-0.382344	0.0285421
-0.442328	0.0206444
-0.392382	0.0277671
-0.452331	0.0193545
-0.402358	0.0296346
-0.462353	0.0177263
-0.412307	0.0298653
-0.472391	0.0168307
-0.422383	0.0313359
-0.482321	0.0201965
-0.432375	0.0276764
-0.49229	0.011318
-0.442332	0.0270412
-0.50235	0.0142486
-0.452323	0.0246671
-0.51233	0.0117437
-0.462349	0.0273475
-0.522341	0.0133092
-0.472299	0.025495
-0.532424	0.0101665
-0.482321	0.0268257
-0.542431	0.00925348
-0.492347	0.0266518
-0.552472	0.00678369
-0.502327	0.0241719
-0.562422	0.00533236
-0.512365	0.0240282
-0.572379	0.00326217
-0.522345	0.0240433
-0.582401	0.00809136
-0.532443	0.0262587
-0.59242	0.00687896
-0.542408	0.0281716
-0.602338	0.00696704
-0.55243	0.0282018
-0.612399	0.0072071
-0.562426	0.0302282
-0.622413	0.00185281
-0.572421	0.0217108
-0.63239	0.00275899
-0.582386	0.0256009
-0.642355	0.0014914
-0.592412	0.0231738
-0.652369	0.000707703
-0.602468	0.027132
-0.662433	0.00997026
-0.612414	0.0249015
-0.672417	0.00488286
-0.622406	0.0241454
-0.682382	0.00641131
-0.632416	0.0268182
-0.692381	0.00706496
-0.642435	0.0277746
-0.702335	0.00616294
-0.652411	0.0288445
-0.712341	0.00709974
-0.662384	0.0268484
-0.722386	0.00548131
-0.672394	0.0263645
-0.732317	0.0103211
-0.682332	0.0297027
-0.742301	0.0124495
-0.692312	0.0272605
-0.752361	0.00896389
-0.702388	0.0291772
-0.762288	0.0046273
-0.71236	0.0263721
-0.772413	0.0054798
-0.722356	0.0302849
-0.782305	0.00642454
-0.732367	0.0254156
-0.792396	0.00611076
-0.742335	0.027355
-0.802369	0.00775225
-0.752407	0.0266707
-0.812265	0.00679654
-0.762349	0.0266707
-0.822367	0.00458912
-0.772364	0.026924
-0.832321	0.00387953
-0.78234	0.0263078
-0.842312	0.00408934
-0.79232	0.0275478
-0.852388	0.000468399
-0.802342	0.0280166
-0.862341	0.00397479
-0.812318	0.0253816
-0.872325	0.00487341
-0.822364	0.0249809
-0.882321	0.00431579
-0.83234	0.0289277
-0.892327	0.00446058
-0.842385	0.024255
-0.902331	0.00642454
-0.852369	0.0208223
-0.912353	0.0112844
-0.862338	0.0260054
-0.922318	0.00996837
-0.872363	0.0247238
-0.932363	0.0122911
-0.882378	0.0272303
-0.942473	0.00428366
-0.892381	0.0209698
-0.952426	0.00589377
-0.902296	0.0195634
-0.96246	0.00682149
-0.912337	0.0170041
-0.972432	0.00246789
-0.92231	0.0202666
-0.98242	0.00412526
-0.932321	0.0182516
-0.99245	0.00781274
-0.942423	0.0201078
-1.00247	0.00360015
-0.952411	0.019915
-1.01236	0.00356612
-0.962444	0.0230075
-1.02241	0.00978123
-0.972444	0.0193593
-1.03238	0.00293289
-0.982416	0.0225878
-1.04239	0.00541251
-0.992411	0.0163425
-1.05237	-0.000428331
-1.00236	0.0213781
-1.06236	0.00698027
-1.01239	0.0160249
-1.07237	0.000883874
-1.0224	0.0170381
-1.08239	0.000659691
-1.03235	0.0188452
-1.09238	-0.00239267
-1.04241	0.0139532
-1.10238	-0.00343268
-1.05241	0.0174577
-1.1124	-0.00220175
-1.06246	0.0158737
-1.12236	-0.00623779
-1.07241	0.0137075