File: VFSWV_data_prep/Example_data/CoPc_VFSWV_txt_data/CoPc_CNT_VFSWV_scans_12_11_C02.txt
Ewe/V	<I>/mA
-0.12248	-0.144781
-0.0724645	0.407073
-0.132406	-0.43155
-0.0824371	0.376145
-0.142429	-0.440586
-0.0924363	0.369526
-0.152458	-0.45586
-0.102432	0.372835
-0.162423	-0.467824
-0.112438	0.373217
-0.172373	-0.473678
-0.122449	0.377799
-0.182384	-0.494552
-0.132384	0.390272
-0.192379	-0.494042
-0.142417	0.391163
-0.202405	-0.516825
-0.152378	0.394981
-0.212419	-0.521789
-0.162389	0.396254
-0.22243	-0.53388
-0.172361	0.3988
-0.232395	-0.541262
-0.182345	0.415346
-0.242398	-0.541389
-0.19236	0.423873
-0.252393	-0.564935
-0.202374	0.423109
-0.262354	-0.571426
-0.212393	0.420691
-0.272396	-0.58619
-0.222415	0.42731
-0.282364	-0.599936
-0.232403	0.43851
-0.292337	-0.619409
-0.242379	0.444237
-0.302336	-0.640919
-0.25237	0.453019
-0.312381	-0.665356
-0.262358	0.460783
-0.322373	-0.702012
-0.272346	0.476947
-0.332364	-0.745667
-0.282341	0.49082
-0.342356	-0.783977
-0.292383	0.50953
-0.35237	-0.853343
-0.302359	0.531167
-0.362324	-0.923218
-0.312366	0.573168
-0.372311	-1.01969
-0.322403	0.615042
-0.382337	-1.13641
-0.332334	0.684153
-0.392363	-1.28125
-0.342283	0.758991
-0.402355	-1.46109
-0.352324	0.870994
-0.412358	-1.66664
-0.362362	1.01062
-0.422384	-1.93023
-0.372353	1.1846
-0.432471	-2.23136
-0.38233	1.39677
-0.442436	-2.5661
-0.392325	1.63452
-0.45242	-2.9338
-0.402324	1.91606
-0.462419	-3.31906
-0.412362	2.1981
-0.472388	-3.70942
-0.422304	2.4818
-0.482437	-4.11187
-0.432418	2.7109
-0.492375	-4.50006
-0.442413	2.9414
-0.502397	-4.85974
-0.452389	3.11029
-0.512358	-5.20148
-0.462358	3.23566
-0.522422	-5.51789
-0.472414	3.32781
-0.532433	-5.80897
-0.482429	3.3903
-0.542405	-6.04723
-0.492386	3.40697
-0.552397	-6.25112
-0.502389	3.42594
-0.562327	-6.41773
-0.512377	3.41232
-0.572399	-6.5347
-0.522411	3.39157
-0.58236	-6.59922
-0.532414	3.37986
-0.592382	-6.60597
-0.542348	3.34842
-0.602351	-6.55939
-0.552366	3.31864
-0.612346	-6.43987
-0.562373	3.27906
-0.62238	-6.27747
-0.572384	3.23859
-0.632364	-6.05156
-0.58236	3.18042
-0.642287	-5.76315
-0.592329	3.09934
-0.652336	-5.44979
-0.602305	3.00223
-0.662342	-5.1092
-0.612346	2.86248
-0.672338	-4.76365
-0.622296	2.71281
-0.682383	-4.41847
-0.632387	2.54862
-0.692359	-4.09672
-0.642355	2.37756
-0.702347	-3.79928
-0.652355	2.20319
-0.712327	-3.55032
-0.662358	2.03926
-0.722319	-3.32899
-0.672365	1.87851
-0.732341	-3.15857
-0.682322	1.74169
-0.742332	-3.00673
-0.692382	1.63796
-0.752328	-2.90083
-0.702282	1.53181
-0.762319	-2.8232
-0.71235	1.44641
-0.772319	-2.7537
-0.722311	1.38315
-0.782406	-2.7187
-0.732333	1.32995
-0.792336	-2.68039
-0.74229	1.28515
-0.802286	-2.65748
-0.752332	1.24964
-0.812323	-2.63712
-0.762289	1.22393
-0.822296	-2.6263
-0.772345	1.19809
-0.832329	-2.60861
-0.782345	1.17149
-0.842359	-2.59906
-0.792321	1.15915
-0.852408	-2.57844
-0.802297	1.1328
-0.8624	-2.54892
-0.8123	1.11371
-0.872422	-2.52384
-0.822307	1.10149
-0.882413	-2.48897
-0.832314	1.07731
-0.892447	-2.45397
-0.842348	1.04931
-0.90245	-2.40751
-0.852416	1.03276
-0.912461	-2.36246
-0.86238	1.01889
-0.922376	-2.32707
-0.87241	1.00718
-0.932406	-2.28864
-0.882421	0.987706
-0.942374	-2.25694
-0.892424	0.979688
-0.952381	-2.24536
-0.902404	0.968233
-0.962403	-2.22474
-0.912403	0.978415
-0.972402	-2.19674
-0.922368	0.975233
-0.982428	-2.19687
-0.932398	0.987706
-0.992409	-2.19712
-0.94237	0.995088
-1.00233	-2.19891
-0.952377	1.01571
-1.01232	-2.20603
-0.962357	1.02945
-1.02238	-2.21278
-0.972303	1.05147
-1.03238	-2.22678
-0.982375	1.06089
-1.04239	-2.23136
-0.992401	1.07476
-1.05236	-2.25236
-1.00232	1.09131
-1.06239	-2.26598
-1.01236	1.10811
-1.07232	-2.29856
-1.02232	1.1174
-1.08236	-2.33026
-1.03235	1.12198
-1.09233	-2.35393
-1.04231	1.14947
-1.10233	-2.39084
-1.05233	1.16691
-1.11238	-2.43882
-1.06238	1.17951
-1.1224	-2.49381
-1.07233	1.20497