File: VFSWV_data_prep/Example_data/CoPc_VFSWV_txt_data/CoPc_CNT_VFSWV_scans_01_0_C02.txt
Ewe/V	<I>/mA
-0.121842	-3.91996
-0.0719227	7.96052
-0.131899	-6.45909
-0.0819448	4.61546
-0.141864	-7.12271
-0.0918791	4.2573
-0.151871	-7.33463
-0.101981	4.14734
-0.161912	-7.42703
-0.111904	4.1061
-0.171888	-7.46483
-0.121938	4.08243
-0.181864	-7.49996
-0.131926	4.0641
-0.191894	-7.53852
-0.141845	4.04081
-0.201974	-7.55609
-0.151848	4.02172
-0.211897	-7.59503
-0.161839	4.0095
-0.221919	-7.6294
-0.171888	3.98315
-0.231975	-7.65918
-0.181884	3.97399
-0.241967	-7.66949
-0.191848	3.95948
-0.25192	-7.70424
-0.20189	3.94268
-0.261889	-7.71111
-0.211809	3.9316
-0.271938	-7.76227
-0.221816	3.92053
-0.282101	-7.79015
-0.231842	3.89495
-0.291963	-7.81688
-0.241753	3.88617
-0.301977	-7.85429
-0.251825	3.86707
-0.312041	-7.88446
-0.26182	3.84989
-0.321915	-7.91691
-0.27198	3.81056
-0.332006	-7.96922
-0.281975	3.79491
-0.341967	-8.02268
-0.291936	3.77964
-0.352	-8.1063
-0.301958	3.73534
-0.361999	-8.18534
-0.311942	3.71243
-0.371983	-8.29034
-0.32188	3.66509
-0.381952	-8.41634
-0.33191	3.61354
-0.391951	-8.558
-0.341825	3.55856
-0.401954	-8.71608
-0.352065	3.48143
-0.411923	-8.90203
-0.361931	3.39628
-0.421941	-9.12693
-0.371888	3.27715
-0.431899	-9.38046
-0.38191	3.13282
-0.44189	-9.67714
-0.391883	2.9568
-0.451886	-9.9891
-0.401889	2.75481
-0.4619	-10.3537
-0.411862	2.50547
-0.471888	-10.7436
-0.421915	2.22216
-0.481879	-11.1686
-0.431845	1.89989
-0.491871	-11.6218
-0.441944	1.54823
-0.501908	-12.1239
-0.451866	1.1706
-0.5119	-12.6271
-0.461904	0.751355
-0.521785	-13.1541
-0.471972	0.324852
-0.531906	-13.7028
-0.481933	-0.143269
-0.541901	-14.2404
-0.491879	-0.606427
-0.551901	-14.8097
-0.501912	-1.08142
-0.561854	-15.3641
-0.511881	-1.57436
-0.571819	-15.9158
-0.521876	-2.05699
-0.58183	-16.4313
-0.531879	-2.52893
-0.591863	-16.938
-0.541871	-2.98675
-0.601817	-17.4137
-0.551905	-3.40676
-0.611896	-17.8467
-0.561904	-3.77293
-0.621899	-18.2137
-0.571834	-4.1055
-0.631917	-18.4993
-0.581818	-4.37431
-0.64192	-18.72
-0.591932	-4.54881
-0.651901	-18.8319
-0.601824	-4.6435
-0.661881	-18.8223
-0.612003	-4.66488
-0.67188	-18.6887
-0.62201	-4.52399
-0.681898	-18.4241
-0.63204	-4.26243
-0.691909	-18.0033
-0.641993	-3.87755
-0.701912	-17.4661
-0.652019	-3.37697
-0.711923	-16.8093
-0.6619	-2.81225
-0.721968	-16.1068
-0.671952	-2.21316
-0.731917	-15.3901
-0.681948	-1.65455
-0.741825	-14.7242
-0.692023	-1.15588
-0.751874	-14.1373
-0.701954	-0.717539
-0.761873	-13.6478
-0.711961	-0.375421
-0.771929	-13.2789
-0.722029	-0.135633
-0.781856	-12.9765
-0.731933	0.0335172
-0.79184	-12.7581
-0.74205	0.15532
-0.801954	-12.5997
-0.751954	0.23245
-0.811797	-12.5008
-0.761919	0.273687
-0.821937	-12.4313
-0.772071	0.303852
-0.831818	-12.3717
-0.781871	0.327525
-0.841855	-12.3629
-0.791958	0.29507
-0.851797	-12.3484
-0.801923	0.287433
-0.861861	-12.3553
-0.811892	0.249632
-0.871822	-12.3736
-0.821956	0.230923
-0.881829	-12.3751
-0.831948	0.206485
-0.891844	-12.3855
-0.841913	0.188921
-0.901866	-12.4034
-0.851874	0.164866
-0.911915	-12.4057
-0.861957	0.159902
-0.921883	-12.4015
-0.871952	0.156466
-0.931845	-12.3973
-0.881929	0.170212
-0.941905	-12.3729
-0.891962	0.177467
-0.951965	-12.3862
-0.901961	0.190449
-0.961945	-12.366
-0.911907	0.219086
-0.971975	-12.3618
-0.921952	0.238559
-0.982024	-12.3385
-0.931822	0.267578
-0.991947	-12.3247
-0.941951	0.287815
-1.0019	-12.3194
-0.952068	0.303088
-1.01188	-12.3026
-0.962014	0.31187
-1.02194	-12.2919
-0.971929	0.352344
-1.0319	-12.2801
-0.981902	0.361126
-1.04194	-12.2793
-0.991935	0.380217
-1.05188	-12.2785
-1.00192	0.389381
-1.06193	-12.2621
-1.01197	0.423364
-1.07188	-12.2476
-1.02198	0.441692
-1.08183	-12.243
-1.03202	0.458492
-1.09188	-12.2392
-1.04197	0.473002
-1.10187	-12.2419
-1.05194	0.473765
-1.11188	-12.2518
-1.06195	0.477966
-1.12191	-12.2854
-1.07199	0.719281