File: VFSWV_data_prep/Example_data/CoPc_VFSWV_txt_data/CoPc_CNT_VFSWV_scans_11_10_C02.txt
Ewe/V	<I>/mA
-0.122415	-0.176816
-0.0724186	0.518948
-0.132414	-0.567481
-0.0824332	0.488911
-0.142432	-0.579699
-0.0924019	0.480256
-0.152405	-0.591918
-0.102428	0.479238
-0.162385	-0.613046
-0.112419	0.476184
-0.172392	-0.631628
-0.122438	0.476056
-0.182437	-0.632901
-0.132452	0.491966
-0.192352	-0.644992
-0.142379	0.49973
-0.202401	-0.656447
-0.152374	0.505966
-0.212419	-0.671084
-0.162427	0.512585
-0.222422	-0.68572
-0.172365	0.517166
-0.232418	-0.691448
-0.182464	0.516785
-0.242329	-0.700612
-0.192398	0.52773
-0.25237	-0.72314
-0.20242	0.527985
-0.262362	-0.730522
-0.212362	0.537276
-0.272346	-0.737776
-0.222399	0.547586
-0.282341	-0.769341
-0.232345	0.553313
-0.292402	-0.788687
-0.242398	0.557768
-0.302378	-0.807269
-0.252409	0.56324
-0.312358	-0.837052
-0.262385	0.579786
-0.322426	-0.877016
-0.272376	0.599005
-0.332372	-0.919399
-0.282368	0.61186
-0.342333	-0.970055
-0.292344	0.645461
-0.352344	-1.0454
-0.302351	0.677153
-0.362358	-1.13017
-0.3124	0.713808
-0.372334	-1.23059
-0.322376	0.779228
-0.38236	-1.36461
-0.332395	0.848848
-0.392356	-1.512
-0.342379	0.946851
-0.402363	-1.7066
-0.352336	1.05402
-0.412346	-1.94334
-0.36235	1.21235
-0.422392	-2.21112
-0.372338	1.39346
-0.432406	-2.52664
-0.382353	1.62383
-0.442443	-2.87436
-0.392363	1.878
-0.452408	-3.24435
-0.402328	2.14643
-0.462442	-3.64107
-0.412366	2.42147
-0.472456	-4.03996
-0.422346	2.69282
-0.482456	-4.43998
-0.432425	2.90588
-0.492367	-4.82029
-0.44244	3.0898
-0.502412	-5.18519
-0.452454	3.24342
-0.512373	-5.52514
-0.462419	3.34932
-0.522395	-5.84448
-0.472456	3.40913
-0.532391	-6.12283
-0.482425	3.44719
-0.542378	-6.37051
-0.492413	3.45826
-0.552427	-6.59006
-0.50242	3.44172
-0.5624	-6.74941
-0.512396	3.42823
-0.572384	-6.87592
-0.522403	3.40175
-0.582368	-6.9388
-0.532368	3.37999
-0.592363	-6.96018
-0.542417	3.34702
-0.60237	-6.92556
-0.552404	3.31037
-0.612365	-6.82183
-0.562369	3.29255
-0.622403	-6.65841
-0.572391	3.25946
-0.632356	-6.43478
-0.582391	3.21618
-0.642348	-6.16814
-0.592367	3.16146
-0.652397	-5.85593
-0.602336	3.07567
-0.662377	-5.52298
-0.612427	2.96889
-0.672372	-5.18124
-0.622388	2.83665
-0.682398	-4.83416
-0.632368	2.68722
-0.692371	-4.50566
-0.642432	2.52635
-0.702366	-4.20287
-0.652366	2.36
-0.712392	-3.93737
-0.662304	2.20027
-0.722334	-3.71158
-0.672349	2.0455
-0.732383	-3.51634
-0.682329	1.91199
-0.742352	-3.36425
-0.69239	1.78955
-0.752332	-3.24397
-0.70237	1.69205
-0.762388	-3.1531
-0.712369	1.60983
-0.772342	-3.09009
-0.722345	1.53423
-0.782329	-3.04377
-0.732364	1.47899
-0.792348	-3.001
-0.742351	1.43305
-0.802324	-2.97338
-0.752297	1.39308
-0.812277	-2.95225
-0.762331	1.36661
-0.822284	-2.94424
-0.772345	1.33606
-0.832337	-2.92298
-0.782287	1.31621
-0.842443	-2.91407
-0.792329	1.29864
-0.852416	-2.88391
-0.802385	1.27917
-0.862411	-2.85972
-0.812323	1.25257
-0.872433	-2.83643
-0.822341	1.23475
-0.882421	-2.80041
-0.832333	1.22088
-0.892443	-2.75612
-0.842359	1.19338
-0.902396	-2.71234
-0.852442	1.18078
-0.91243	-2.67428
-0.862472	1.16118
-0.92233	-2.63585
-0.872399	1.14273
-0.932436	-2.60377
-0.882409	1.12809
-0.942432	-2.57361
-0.892443	1.12096
-0.952415	-2.53899
-0.902416	1.11727
-0.962415	-2.5255
-0.912426	1.12275
-0.972422	-2.50908
-0.922429	1.12987
-0.982413	-2.50501
-0.932409	1.13929
-0.992328	-2.50933
-0.942389	1.14757
-1.00238	-2.50959
-0.952343	1.17557
-1.01241	-2.51684
-0.962399	1.18575
-1.02239	-2.5255
-0.972334	1.20484
-1.03237	-2.53644
-0.98239	1.22508
-1.04244	-2.5465
-0.992363	1.23551
-1.05235	-2.55897
-1.00234	1.25359
-1.06239	-2.58035
-1.01242	1.26313
-1.07235	-2.60899
-1.02241	1.27204
-1.08234	-2.6319
-1.03233	1.29253
-1.09239	-2.67454
-1.04237	1.31048
-1.10241	-2.71234
-1.05243	1.3227
-1.11238	-2.75345
-1.06237	1.35757
-1.12233	-2.80843
-1.07237	1.36763