File: VFSWV_data_prep/Example_data/CoPc_VFSWV_txt_data/CoPc_CNT_VFSWV_scans_07_6_C02.txt
Ewe/V	<I>/mA
-0.122308	-0.578882
-0.0723841	1.29221
-0.13233	-1.5043
-0.0823795	1.20287
-0.142337	-1.52492
-0.0923329	1.19828
-0.152366	-1.53981
-0.102374	1.19695
-0.162335	-1.57112
-0.112312	1.20191
-0.172296	-1.59326
-0.122327	1.20382
-0.182295	-1.61331
-0.132337	1.22692
-0.192295	-1.62877
-0.14236	1.22482
-0.202305	-1.65665
-0.152317	1.24372
-0.21232	-1.67249
-0.162331	1.25308
-0.222327	-1.68509
-0.172311	1.25613
-0.232295	-1.70056
-0.182276	1.27809
-0.242287	-1.71583
-0.192306	1.28133
-0.252313	-1.73549
-0.202305	1.28572
-0.26224	-1.75153
-0.212263	1.29928
-0.272426	-1.78017
-0.222308	1.29202
-0.282341	-1.80842
-0.232288	1.29871
-0.292382	-1.84145
-0.242295	1.3199
-0.302359	-1.87314
-0.252275	1.33326
-0.312381	-1.92259
-0.262293	1.35541
-0.322365	-1.96803
-0.272365	1.37202
-0.332398	-2.0169
-0.282375	1.39951
-0.342367	-2.09308
-0.292409	1.43941
-0.352374	-2.18548
-0.30237	1.50146
-0.362381	-2.29869
-0.312449	1.55892
-0.372368	-2.44436
-0.322391	1.64006
-0.382368	-2.59843
-0.332326	1.74411
-0.392367	-2.79679
-0.342352	1.86209
-0.402328	-3.03715
-0.352324	2.01272
-0.412358	-3.29259
-0.36232	2.16603
-0.422319	-3.59824
-0.372304	2.35904
-0.43233	-3.92814
-0.382341	2.57153
-0.442329	-4.28
-0.39234	2.77886
-0.452313	-4.65724
-0.402351	2.97799
-0.462335	-5.0322
-0.412327	3.14427
-0.472323	-5.42587
-0.42233	3.28956
-0.482307	-5.79757
-0.432326	3.38005
-0.492336	-6.17253
-0.442298	3.45699
-0.502316	-6.52839
-0.452282	3.4736
-0.512235	-6.86078
-0.462304	3.4589
-0.522292	-7.19659
-0.472281	3.42301
-0.53228	-7.48602
-0.482314	3.3476
-0.542329	-7.77678
-0.49234	3.27123
-0.55227	-8.0181
-0.502297	3.19792
-0.562254	-8.23555
-0.5123	3.108
-0.572311	-8.41062
-0.522345	3.02762
-0.582238	-8.53109
-0.532329	2.95565
-0.592256	-8.61547
-0.542302	2.89876
-0.602263	-8.63055
-0.552282	2.8621
-0.612361	-8.6023
-0.562254	2.86096
-0.622357	-8.48164
-0.572246	2.8789
-0.632383	-8.29588
-0.582303	2.90372
-0.64234	-8.04865
-0.592294	2.93732
-0.652331	-7.75406
-0.602278	2.96615
-0.662327	-7.43199
-0.612346	2.9652
-0.672383	-7.07708
-0.622383	2.95374
-0.68231	-6.72198
-0.632337	2.92434
-0.692344	-6.3707
-0.642302	2.85809
-0.702335	-6.05283
-0.652339	2.76836
-0.712365	-5.76417
-0.662373	2.67042
-0.722326	-5.50414
-0.672349	2.56103
-0.732299	-5.28268
-0.682344	2.46099
-0.742286	-5.10456
-0.69234	2.35522
-0.752347	-4.94591
-0.702385	2.26492
-0.76235	-4.82945
-0.712327	2.18149
-0.77233	-4.73246
-0.722273	2.10627
-0.782337	-4.67519
-0.73236	2.04251
-0.792294	-4.61983
-0.742355	1.98791
-0.802282	-4.58603
-0.752305	1.94858
-0.812289	-4.56121
-0.762354	1.91078
-0.822391	-4.53601
-0.772303	1.87966
-0.832283	-4.51921
-0.782279	1.86133
-0.842294	-4.50948
-0.792332	1.83842
-0.852316	-4.48829
-0.802301	1.81685
-0.862208	-4.46251
-0.81227	1.7905
-0.872345	-4.43731
-0.82228	1.77828
-0.882314	-4.39684
-0.832318	1.74697
-0.892263	-4.36839
-0.842313	1.74315
-0.902289	-4.32639
-0.852308	1.73475
-0.912288	-4.29183
-0.862292	1.72884
-0.922295	-4.25804
-0.872223	1.70688
-0.932264	-4.22005
-0.882291	1.70803
-0.942286	-4.18511
-0.892271	1.71146
-0.95235	-4.16602
-0.902263	1.72693
-0.962357	-4.1517
-0.912304	1.74163
-0.972368	-4.13433
-0.922234	1.7527
-0.982375	-4.12593
-0.932279	1.76835
-0.992347	-4.12669
-0.942248	1.78535
-1.00232	-4.13548
-0.952385	1.80539
-1.01236	-4.12555
-0.962353	1.83556
-1.02237	-4.14101
-0.97233	1.85465
-1.03236	-4.15552
-0.982317	1.8661
-1.04234	-4.1666
-0.992393	1.90352
-1.05236	-4.1727
-1.00232	1.91841
-1.06234	-4.1813
-1.01233	1.92147
-1.07231	-4.21165
-1.0223	1.9396
-1.08234	-4.23609
-1.03232	1.96041
-1.09234	-4.26472
-1.04235	1.97645
-1.10236	-4.30997
-1.05232	1.98848
-1.11232	-4.36381
-1.06226	2.00032
-1.12228	-4.41249
-1.07234	2.02246