File: VFSWV_data_prep/Example_data/CoPc_VFSWV_txt_data/CoPc_CNT_VFSWV_scans_37_36_C02.txt
Ewe/V	<I>/mA
-0.122043	0.015396
-0.0720205	0.0442629
-0.132062	-0.00117464
-0.0819243	0.0432265
-0.142145	-0.00439291
-0.0918816	0.0410992
-0.152049	-0.00155647
-0.101949	0.0379355
-0.162078	-0.00608387
-0.111995	0.03679
-0.172112	-0.00908395
-0.12202	0.0444266
-0.182012	-0.0028656
-0.13202	0.0418629
-0.192057	-0.00537476
-0.142023	0.0388628
-0.20203	-0.00870212
-0.152117	0.041972
-0.212056	-0.00837484
-0.162017	0.0358082
-0.222043	-0.0117567
-0.171994	0.0338445
-0.23202	-0.0175387
-0.182062	0.0321535
-0.242004	-0.0186297
-0.192099	0.0375537
-0.252026	-0.0195024
-0.202022	0.03799
-0.262044	-0.0267572
-0.212017	0.0332445
-0.272055	-0.0201024
-0.22194	0.0379355
-0.282077	-0.0264299
-0.232046	0.0358082
-0.292046	-0.0269753
-0.242072	0.0339536
-0.302007	-0.0289936
-0.252033	0.0347172
-0.312025	-0.0354301
-0.262078	0.0337899
-0.322001	-0.0351028
-0.272047	0.0374446
-0.332008	-0.0314482
-0.282	0.034499
-0.342015	-0.0401757
-0.292053	0.0322081
-0.352071	-0.0332482
-0.301976	0.0450266
-0.361941	-0.0442667
-0.312067	0.0426811
-0.37202	-0.0479214
-0.322047	0.0403356
-0.381997	-0.0461213
-0.332065	0.0445357
-0.391954	-0.0531579
-0.341931	0.0455175
-0.402022	-0.0666855
-0.351938	0.0402265
-0.412029	-0.0738311
-0.361979	0.052445
-0.42186	-0.0901407
-0.371921	0.0503176
-0.431981	-0.107214
-0.382008	0.0534268
-0.441988	-0.138524
-0.391958	0.0545723
-0.451911	-0.192143
-0.402014	0.0716455
-0.461975	-0.245272
-0.41199	0.0848458
-0.471921	-0.328838
-0.421959	0.107592
-0.481943	-0.433186
-0.432016	0.158593
-0.491889	-0.549917
-0.441923	0.217068
-0.501922	-0.692502
-0.451961	0.298397
-0.511979	-0.844634
-0.461929	0.404218
-0.522024	-0.996274
-0.471982	0.533167
-0.532015	-1.14131
-0.481996	0.67488
-0.54203	-1.26208
-0.491984	0.804702
-0.552037	-1.35219
-0.501896	0.91985
-0.56199	-1.41694
-0.511899	1.00265
-0.572047	-1.43178
-0.521898	1.06211
-0.581977	-1.40696
-0.531989	1.07885
-0.592011	-1.33588
-0.542068	1.0584
-0.602056	-1.23688
-0.552064	1.01509
-0.612059	-1.09937
-0.562059	0.945269
-0.621997	-0.964255
-0.57202	0.851121
-0.632031	-0.82336
-0.582034	0.755009
-0.641992	-0.706084
-0.592018	0.64897
-0.651957	-0.608391
-0.602033	0.543858
-0.66194	-0.530934
-0.611983	0.459747
-0.671959	-0.476606
-0.621997	0.381199
-0.681985	-0.43875
-0.632034	0.310616
-0.692053	-0.414477
-0.642041	0.263923
-0.70206	-0.386003
-0.652029	0.224322
-0.712024	-0.374548
-0.661998	0.198903
-0.72194	-0.366748
-0.671974	0.176212
-0.731996	-0.362221
-0.682084	0.154175
-0.742033	-0.351366
-0.692064	0.149429
-0.751945	-0.364239
-0.701956	0.149429
-0.761956	-0.356111
-0.71199	0.140102
-0.772008	-0.361403
-0.72194	0.134974
-0.781912	-0.356057
-0.731946	0.12772
-0.791957	-0.363639
-0.741934	0.129302
-0.801941	-0.35933
-0.751914	0.129247
-0.812047	-0.348475
-0.761925	0.124011
-0.821947	-0.352184
-0.771928	0.123683
-0.832027	-0.350657
-0.781988	0.11321
-0.841938	-0.341111
-0.791965	0.110483
-0.852002	-0.338329
-0.801926	0.109719
-0.862001	-0.327256
-0.811944	0.105137
-0.871905	-0.31962
-0.821997	0.0983189
-0.881996	-0.309747
-0.831935	0.0968462
-0.891945	-0.302383
-0.841965	0.0880096
-0.902006	-0.286891
-0.85201	0.0849549
-0.911967	-0.282909
-0.861956	0.0773184
-0.921943	-0.272382
-0.871993	0.0721364
-0.93203	-0.259018
-0.881977	0.0664635
-0.942041	-0.252745
-0.891995	0.0664635
-0.952082	-0.247672
-0.901949	0.0596997
-0.962074	-0.241836
-0.911921	0.0551178
-0.971997	-0.231854
-0.921943	0.0616634
-0.982095	-0.23289
-0.932061	0.0567542
-0.992022	-0.229835
-0.941991	0.0544087
-1.00202	-0.231854
-0.952055	0.0577906
-1.01204	-0.230054
-0.961963	0.0563724
-1.02199	-0.230763
-0.972019	0.0558269
-1.03201	-0.228308
-0.982042	0.061718
-1.04205	-0.235836
-0.99201	0.0606816
-1.05202	-0.235563
-1.00198	0.057736
-1.06199	-0.235945
-1.01195	0.0588815
-1.072	-0.242054
-1.02204	0.0658635
-1.082	-0.252145
-1.03218	0.0566451
-1.09196	-0.257109
-1.04195	0.0679908
-1.10196	-0.267855
-1.05206	0.0727364
-1.11196	-0.277509
-1.06199	0.0734455
-1.12199	-0.274946
-1.072	0.0741547