File: VFSWV_data_prep/Example_data/CoPc_VFSWV_txt_data/CoPc_CNT_VFSWV_scans_47_46_C02.txt
Ewe/V	<I>/mA
-0.122391	-0.00804827
-0.0723946	0.0206739
-0.132398	0.00192957
-0.0823938	0.0180011
-0.142362	-0.00102092
-0.0923511	0.0237979
-0.152339	-0.00338132
-0.102396	0.0178969
-0.162411	0.00345688
-0.112376	0.0200491
-0.172379	-0.000430823
-0.12244	0.0176192
-0.18234	-0.00341603
-0.132398	0.0249781
-0.192332	-0.00181929
-0.142355	0.0216805
-0.202411	-0.00584584
-0.1524	0.0220971
-0.212468	-0.00324247
-0.162414	0.0173068
-0.222505	-0.00515161
-0.172375	0.0255335
-0.232455	-0.0024441
-0.182378	0.0249087
-0.242481	-0.00133333
-0.192393	0.0153283
-0.252468	-0.00414497
-0.202453	0.0156754
-0.262494	-0.0092823
-0.212414	0.0211946
-0.272471	-0.00900461
-0.222463	0.0172374
-0.282439	-0.00824095
-0.232504	0.0190771
-0.292458	-0.0128923
-0.242435	0.0167862
-0.302457	-0.0124064
-0.252453	0.0161961
-0.31246	-0.0147667
-0.262441	0.0145993
-0.322448	-0.0185156
-0.272406	0.0200144
-0.332428	-0.0120592
-0.282474	0.0159184
-0.342381	-0.0209107
-0.292442	0.0151547
-0.352415	-0.0149056
-0.302453	0.0215764
-0.362391	-0.0208066
-0.312445	0.0178622
-0.372436	-0.0208066
-0.322444	0.0209169
-0.382428	-0.0210148
-0.332451	0.0254988
-0.392423	-0.0247984
-0.342461	0.0220276
-0.40238	-0.0228546
-0.352411	0.0235202
-0.412422	-0.0317755
-0.362403	0.0292129
-0.422425	-0.0277836
-0.372406	0.0291088
-0.43239	-0.0249373
-0.38239	0.0311221
-0.442385	-0.0335111
-0.392408	0.0339337
-0.45238	-0.0389955
-0.402403	0.0322329
-0.462395	-0.045313
-0.412422	0.0336213
-0.472367	-0.0660706
-0.422417	0.0305667
-0.482386	-0.0679103
-0.432401	0.044382
-0.492381	-0.0864811
-0.442351	0.0404595
-0.502445	-0.119179
-0.452365	0.0444861
-0.512402	-0.146741
-0.462361	0.0589609
-0.522386	-0.173746
-0.472367	0.0719083
-0.532363	-0.205091
-0.482412	0.0876327
-0.542389	-0.23043
-0.492343	0.112868
-0.552342	-0.254416
-0.502346	0.129183
-0.562341	-0.268579
-0.512368	0.155494
-0.57239	-0.269759
-0.522367	0.176286
-0.582386	-0.264205
-0.532363	0.190171
-0.592381	-0.241087
-0.542343	0.188366
-0.602418	-0.227896
-0.552376	0.184409
-0.612444	-0.209638
-0.562311	0.180868
-0.622398	-0.198947
-0.572356	0.156882
-0.632492	-0.186902
-0.582317	0.146469
-0.64245	-0.171143
-0.592312	0.124566
-0.652437	-0.169546
-0.602342	0.107037
-0.662383	-0.163853
-0.612418	0.0953387
-0.672405	-0.16007
-0.622467	0.0845434
-0.682412	-0.155384
-0.632447	0.0766291
-0.692411	-0.148546
-0.642469	0.0690967
-0.702403	-0.147122
-0.652434	0.063161
-0.712429	-0.15226
-0.662414	0.0650701
-0.722356	-0.145838
-0.672428	0.0651048
-0.732408	-0.153509
-0.682428	0.0581972
-0.742431	-0.15639
-0.692415	0.0554203
-0.752395	-0.147331
-0.702388	0.0528863
-0.762402	-0.158369
-0.712421	0.0521227
-0.772398	-0.151184
-0.722405	0.0510119
-0.782443	-0.154898
-0.732393	0.0479573
-0.792312	-0.155314
-0.742404	0.0584055
-0.802399	-0.151149
-0.752372	0.0510466
-0.81233	-0.155488
-0.762395	0.054726
-0.822398	-0.157293
-0.772421	0.047749
-0.832397	-0.149726
-0.782389	0.0458398
-0.842365	-0.142853
-0.792392	0.0553508
-0.852361	-0.136119
-0.80238	0.0517061
-0.862356	-0.140319
-0.812356	0.0546913
-0.872401	-0.129038
-0.822398	0.0506648
-0.882362	-0.124942
-0.832473	0.042334
-0.892388	-0.118416
-0.842396	0.0429241
-0.902395	-0.114979
-0.852426	0.0446249
-0.912352	-0.115326
-0.862349	0.0303237
-0.922336	-0.111439
-0.872375	0.0284146
-0.932401	-0.112966
-0.882408	0.0300113
-0.942384	-0.106093
-0.892373	0.0291088
-0.952334	-0.105121
-0.902346	0.031018
-0.96236	-0.102657
-0.912356	0.0255335
-0.972279	-0.103143
-0.922375	0.0279286
-0.982343	-0.104323
-0.932347	0.0277898
-0.992308	-0.0984219
-0.942358	0.0222012
-1.00236	-0.0994285
-0.952326	0.02536
-1.01235	-0.0960268
-0.962333	0.0247351
-1.02242	-0.098283
-0.972325	0.0289353
-1.03241	-0.103525
-0.982358	0.0274427
-1.0424	-0.0988731
-0.992308	0.0276162
-1.05243	-0.100991
-1.00231	0.0321982
-1.06245	-0.0988731
-1.01246	0.0282757
-1.07242	-0.105156
-1.02238	0.0291088
-1.08243	-0.09443
-1.03246	0.0308791
-1.0924	-0.112793
-1.04243	0.0295254
-1.10239	-0.112376
-1.05242	0.0358429
-1.11238	-0.115014
-1.06242	0.0358082
-1.12237	-0.12397
-1.0724	0.0345585