File: VFSWV_data_prep/Example_data/CoPc_VFSWV_txt_data/CoPc_CNT_VFSWV_scans_33_32_C02.txt
Ewe/V	<I>/mA
-0.122329	0.00501027
-0.0723829	0.0405174
-0.132378	-0.00695662
-0.082321	0.03689
-0.142355	-0.0173933
-0.0923852	0.0353627
-0.152296	-0.016566
-0.102327	0.0296353
-0.162403	-0.0153568
-0.112384	0.0328808
-0.172417	-0.0151659
-0.122314	0.041472
-0.182405	-0.00873848
-0.132348	0.0416629
-0.1924	-0.0109658
-0.142362	0.0367627
-0.20238	-0.0207024
-0.152312	0.0338354
-0.212399	-0.0205115
-0.162418	0.0323717
-0.222409	-0.0226752
-0.172425	0.0374628
-0.232428	-0.0205752
-0.182439	0.0403901
-0.242416	-0.020957
-0.192393	0.03759
-0.25243	-0.0280208
-0.202442	0.0386082
-0.262376	-0.0340028
-0.212437	0.0342809
-0.272386	-0.036612
-0.22244	0.0399446
-0.282351	-0.0359756
-0.232447	0.03829
-0.292385	-0.037312
-0.242442	0.0342172
-0.302384	-0.0387757
-0.252388	0.0370173
-0.312364	-0.0415121
-0.262403	0.03619
-0.322409	-0.0504851
-0.272379	0.0432538
-0.332374	-0.049085
-0.28239	0.0379082
-0.342373	-0.0562125
-0.292385	0.0424902
-0.352354	-0.059458
-0.302388	0.0418538
-0.362399	-0.0611126
-0.312357	0.0422993
-0.372406	-0.06544
-0.322371	0.0412174
-0.382363	-0.0722493
-0.332397	0.0402628
-0.39237	-0.0754312
-0.342362	0.0445266
-0.402384	-0.0947135
-0.352369	0.0433175
-0.412334	-0.102541
-0.362364	0.0510177
-0.422379	-0.132642
-0.372329	0.055536
-0.432336	-0.166243
-0.382405	0.0648908
-0.44232	-0.214099
-0.392385	0.0738001
-0.452315	-0.284164
-0.40235	0.0914278
-0.462315	-0.37873
-0.412353	0.127638
-0.472306	-0.501997
-0.422337	0.168112
-0.482363	-0.650401
-0.432363	0.249059
-0.492274	-0.819615
-0.442285	0.348207
-0.502334	-1.00429
-0.4523	0.484075
-0.512295	-1.201
-0.462349	0.648134
-0.522283	-1.38618
-0.47231	0.824157
-0.532305	-1.56914
-0.482336	0.988406
-0.542301	-1.71787
-0.492266	1.14177
-0.552342	-1.84298
-0.502338	1.27109
-0.562288	-1.91273
-0.512269	1.37291
-0.572321	-1.93856
-0.522317	1.42827
-0.582362	-1.91801
-0.532305	1.44966
-0.592385	-1.84069
-0.542255	1.42649
-0.602361	-1.72684
-0.5523	1.37615
-0.612379	-1.58003
-0.562303	1.28184
-0.622398	-1.39834
-0.572302	1.16761
-0.632393	-1.2185
-0.582424	1.0383
-0.642385	-1.03828
-0.592423	0.908604
-0.652342	-0.881471
-0.602418	0.771655
-0.662379	-0.762659
-0.612379	0.65157
-0.672378	-0.674584
-0.622378	0.545485
-0.682408	-0.602418
-0.632393	0.455438
-0.692358	-0.553035
-0.642362	0.38079
-0.702361	-0.518989
-0.652349	0.323007
-0.712318	-0.493151
-0.662352	0.275533
-0.722352	-0.473933
-0.672378	0.242314
-0.732316	-0.464896
-0.682385	0.213613
-0.742384	-0.457387
-0.69235	0.201076
-0.752334	-0.450959
-0.702376	0.187967
-0.762368	-0.45115
-0.712368	0.177212
-0.772367	-0.455032
-0.722367	0.169066
-0.782316	-0.453123
-0.732378	0.162193
-0.792377	-0.448668
-0.742362	0.160412
-0.802303	-0.451405
-0.752372	0.154493
-0.812314	-0.448223
-0.762329	0.156657
-0.822317	-0.446823
-0.77234	0.148575
-0.832328	-0.446887
-0.78242	0.147238
-0.842361	-0.433968
-0.792346	0.141702
-0.852384	-0.436705
-0.802323	0.135402
-0.862322	-0.420095
-0.812341	0.132156
-0.872348	-0.415004
-0.822355	0.11981
-0.882339	-0.396613
-0.832305	0.116438
-0.892304	-0.382803
-0.842319	0.11281
-0.90233	-0.371603
-0.852334	0.0974098
-0.912329	-0.355884
-0.862348	0.0969007
-0.922248	-0.350539
-0.872325	0.0876732
-0.932324	-0.337366
-0.882332	0.0855731
-0.942327	-0.326611
-0.892342	0.0839186
-0.952307	-0.31681
-0.902288	0.0776184
-0.962291	-0.308856
-0.912299	0.0697909
-0.972302	-0.302619
-0.922302	0.071
-0.982312	-0.298101
-0.932335	0.0719546
-0.992392	-0.291164
-0.942293	0.0708727
-1.00244	-0.294219
-0.952319	0.0722728
-1.01237	-0.298355
-0.962341	0.0627271
-1.02238	-0.302555
-0.972279	0.0687727
-1.03244	-0.301792
-0.982301	0.0748183
-1.04245	-0.306692
-0.992357	0.0768547
-1.05233	-0.303956
-1.00233	0.0805457
-1.06235	-0.309492
-1.01242	0.0819458
-1.07237	-0.314456
-1.02237	0.0824549
-1.08233	-0.324511
-1.03238	0.0854459
-1.0923	-0.328774
-1.04236	0.0886914
-1.10234	-0.333165
-1.05235	0.0916824
-1.11237	-0.347802
-1.06237	0.0911097
-1.12239	-0.361675
-1.07235	0.100974