File: VFSWV_data_prep/Example_data/CoPc_VFSWV_txt_data/CoPc_CNT_VFSWV_scans_28_27_C02.txt
Ewe/V	<I>/mA
-0.121931	-0.000144417
-0.0719193	0.0649799
-0.131964	-0.0182587
-0.0819567	0.0547469
-0.141876	-0.023528
-0.0919216	0.0539068
-0.151955	-0.0236043
-0.101959	0.0597106
-0.16205	-0.0249789
-0.111962	0.0503176
-0.172015	-0.0254371
-0.121919	0.0433684
-0.182048	-0.0193279
-0.131949	0.0484849
-0.191983	-0.0249026
-0.14196	0.0604743
-0.202016	-0.0362047
-0.15189	0.0565796
-0.211992	-0.0315464
-0.162042	0.0503176
-0.221919	-0.0359756
-0.17198	0.0562742
-0.231972	-0.0387247
-0.182075	0.0521504
-0.242063	-0.0437649
-0.192032	0.0564269
-0.251997	-0.0403284
-0.20197	0.0572669
-0.262103	-0.0421612
-0.212012	0.0514631
-0.272026	-0.0449104
-0.22198	0.0578778
-0.281949	-0.0467431
-0.231972	0.0488667
-0.29204	-0.0537688
-0.241971	0.0519213
-0.301978	-0.0539215
-0.252005	0.0492485
-0.312046	-0.0617108
-0.261985	0.0548996
-0.321934	-0.0601071
-0.27198	0.0523795
-0.331979	-0.074693
-0.282002	0.0538305
-0.341971	-0.0739293
-0.291998	0.0565033
-0.351924	-0.076373
-0.302031	0.0576487
-0.361935	-0.0882861
-0.311973	0.0634525
-0.371969	-0.102108
-0.322011	0.0657435
-0.381987	-0.108141
-0.331941	0.0694854
-0.392017	-0.129371
-0.341925	0.075671
-0.401978	-0.155641
-0.351951	0.0794893
-0.411965	-0.188783
-0.361988	0.0874314
-0.42185	-0.240636
-0.371942	0.102552
-0.431945	-0.320438
-0.382044	0.117901
-0.441921	-0.415742
-0.392024	0.156466
-0.451939	-0.545106
-0.40197	0.206256
-0.461912	-0.71143
-0.411923	0.283691
-0.471972	-0.905323
-0.421919	0.403051
-0.481983	-1.13228
-0.431945	0.553797
-0.491929	-1.38123
-0.441891	0.748605
-0.501985	-1.64836
-0.451917	0.964873
-0.511935	-1.9009
-0.461897	1.19649
-0.521965	-2.14604
-0.471911	1.41337
-0.531968	-2.37842
-0.481914	1.61574
-0.541894	-2.57361
-0.491955	1.78817
-0.551943	-2.72344
-0.501917	1.90784
-0.561935	-2.83348
-0.511962	2.00536
-0.571907	-2.87922
-0.521881	2.05851
-0.581949	-2.87334
-0.532006	2.07454
-0.591906	-2.80339
-0.541845	2.04331
-0.602019	-2.67533
-0.551909	1.97771
-0.611912	-2.49709
-0.561866	1.88164
-0.621926	-2.28533
-0.57198	1.73517
-0.632078	-2.03111
-0.582055	1.58863
-0.641929	-1.77475
-0.591971	1.42429
-0.651977	-1.53931
-0.601935	1.25445
-0.662019	-1.3264
-0.611996	1.08507
-0.672018	-1.15244
-0.621976	0.933334
-0.681945	-1.01292
-0.631968	0.783505
-0.69199	-0.908148
-0.641982	0.661854
-0.701939	-0.821626
-0.651989	0.566244
-0.711992	-0.767941
-0.661954	0.485602
-0.722045	-0.728307
-0.672029	0.421073
-0.731979	-0.702724
-0.681983	0.372734
-0.741925	-0.684015
-0.691929	0.334016
-0.751981	-0.673858
-0.701901	0.311412
-0.761954	-0.665534
-0.712049	0.29232
-0.771907	-0.656294
-0.722033	0.278651
-0.781979	-0.660571
-0.731933	0.26712
-0.791913	-0.65996
-0.741936	0.258872
-0.801951	-0.654767
-0.751985	0.252916
-0.811976	-0.646366
-0.761931	0.241308
-0.821903	-0.641632
-0.772006	0.240926
-0.831998	-0.636668
-0.781979	0.234664
-0.842028	-0.638501
-0.791951	0.227181
-0.851989	-0.622006
-0.801973	0.222904
-0.862037	-0.608336
-0.811931	0.215497
-0.872029	-0.596729
-0.821968	0.202133
-0.882017	-0.579852
-0.831933	0.195947
-0.891905	-0.568474
-0.841967	0.17823
-0.901908	-0.54648
-0.851958	0.171357
-0.911908	-0.531818
-0.861965	0.165477
-0.92193	-0.507916
-0.871999	0.154862
-0.931975	-0.488824
-0.881921	0.143866
-0.942008	-0.475918
-0.89202	0.135389
-0.951866	-0.470802
-0.90192	0.129356
-0.961946	-0.451023
-0.9119	0.129127
-0.971922	-0.448121
-0.921976	0.123476
-0.981948	-0.439263
-0.931967	0.122712
-0.991989	-0.435903
-0.941814	0.120498
-1.00198	-0.432619
-0.951905	0.12233
-1.01196	-0.441172
-0.961927	0.127142
-1.02191	-0.437583
-0.971914	0.121643
-1.03197	-0.449114
-0.981906	0.13516
-1.04191	-0.438117
-0.992043	0.136916
-1.05197	-0.450183
-1.00211	0.141269
-1.06203	-0.46286
-1.01198	0.134778
-1.07194	-0.474696
-1.02201	0.147073
-1.08209	-0.476376
-1.03204	0.147149
-1.09199	-0.484166
-1.04197	0.154633
-1.10206	-0.50845
-1.05192	0.163033
-1.112	-0.516545
-1.06198	0.165783
-1.12196	-0.543655
-1.0719	0.170059