File: VFSWV_data_prep/Example_data/CoPc_VFSWV_txt_data/CoPc_CNT_VFSWV_scans_14_13_C02.txt
Ewe/V	<I>/mA
-0.122449	-0.0828866
-0.0724492	0.25765
-0.132399	-0.253745
-0.0824408	0.244541
-0.142444	-0.264436
-0.0924668	0.241486
-0.15242	-0.277291
-0.102397	0.243396
-0.1624	-0.281109
-0.112484	0.240341
-0.172411	-0.291673
-0.122434	0.244159
-0.182406	-0.297273
-0.13241	0.246068
-0.192444	-0.311528
-0.142398	0.241614
-0.202363	-0.312928
-0.152435	0.253323
-0.212396	-0.333547
-0.162416	0.253069
-0.222388	-0.328838
-0.172434	0.259178
-0.232402	-0.336475
-0.182399	0.266433
-0.242398	-0.346529
-0.192436	0.267196
-0.252424	-0.352384
-0.202386	0.263251
-0.262431	-0.36333
-0.2124	0.271651
-0.272308	-0.383821
-0.222384	0.270633
-0.282376	-0.389421
-0.232399	0.281451
-0.292402	-0.407113
-0.242367	0.284378
-0.302386	-0.425186
-0.252347	0.294051
-0.312347	-0.444405
-0.262343	0.29227
-0.322422	-0.465278
-0.272396	0.301433
-0.332402	-0.496079
-0.282372	0.319252
-0.34236	-0.527771
-0.292371	0.335289
-0.352332	-0.576645
-0.30242	0.355653
-0.362358	-0.627046
-0.312331	0.378817
-0.372342	-0.711557
-0.322365	0.413309
-0.382368	-0.799123
-0.332353	0.455056
-0.39234	-0.921308
-0.342318	0.51513
-0.402328	-1.0706
-0.352328	0.58895
-0.412259	-1.25974
-0.362339	0.697899
-0.4223	-1.48069
-0.372334	0.840702
-0.432448	-1.75166
-0.382353	1.01482
-0.442417	-2.05432
-0.39236	1.24099
-0.45245	-2.40229
-0.402363	1.50127
-0.462411	-2.77369
-0.412339	1.787
-0.472434	-3.15933
-0.422327	2.0791
-0.482459	-3.55223
-0.432421	2.35885
-0.492421	-3.93966
-0.442421	2.6106
-0.50242	-4.30138
-0.452385	2.82876
-0.512415	-4.65546
-0.462423	2.99447
-0.522395	-4.95774
-0.472388	3.1276
-0.532452	-5.24742
-0.482368	3.22089
-0.542428	-5.48479
-0.492382	3.28491
-0.552427	-5.6808
-0.502443	3.32093
-0.562434	-5.83226
-0.512411	3.33226
-0.572369	-5.93637
-0.522349	3.32691
-0.582417	-5.98766
-0.532349	3.31241
-0.59242	-5.98575
-0.542405	3.2858
-0.602416	-5.91028
-0.552408	3.2522
-0.612354	-5.78593
-0.562373	3.20091
-0.622368	-5.58751
-0.572388	3.14046
-0.632329	-5.34543
-0.582353	3.04398
-0.642371	-5.05766
-0.59239	2.93109
-0.652362	-4.73412
-0.602366	2.79897
-0.662346	-4.39366
-0.612369	2.62651
-0.67238	-4.03817
-0.622422	2.46093
-0.682372	-3.70649
-0.632398	2.27281
-0.692344	-3.39441
-0.642378	2.08839
-0.702408	-3.1354
-0.652324	1.9167
-0.712358	-2.89842
-0.662327	1.74767
-0.722345	-2.70979
-0.672407	1.59354
-0.732348	-2.55121
-0.682402	1.45634
-0.742344	-2.43208
-0.692359	1.34446
-0.752301	-2.33789
-0.70237	1.2541
-0.762339	-2.28062
-0.712346	1.17493
-0.772361	-2.23569
-0.72233	1.11346
-0.782341	-2.19585
-0.732348	1.07044
-0.792317	-2.17141
-0.742313	1.03327
-0.802358	-2.15601
-0.752347	0.999416
-0.8123	-2.14329
-0.762304	0.980579
-0.822315	-2.13501
-0.772334	0.954869
-0.832337	-2.11249
-0.782337	0.941505
-0.842439	-2.10039
-0.792351	0.926232
-0.852419	-2.08525
-0.802343	0.911723
-0.862415	-2.05305
-0.812327	0.883849
-0.872448	-2.02937
-0.822357	0.866921
-0.882421	-1.99565
-0.832402	0.851648
-0.892447	-1.95543
-0.84242	0.824029
-0.902377	-1.91903
-0.852469	0.806211
-0.912419	-1.88364
-0.86243	0.787119
-0.922353	-1.8489
-0.872433	0.769555
-0.932428	-1.80142
-0.882413	0.754537
-0.942409	-1.78182
-0.892424	0.744991
-0.952381	-1.75726
-0.902385	0.740791
-0.962411	-1.74428
-0.912434	0.731754
-0.972414	-1.72748
-0.922425	0.735827
-0.982448	-1.72213
-0.932444	0.736845
-0.99237	-1.72378
-0.942382	0.749445
-1.00243	-1.71742
-0.952385	0.762555
-1.01238	-1.72773
-0.96235	0.770446
-1.02238	-1.72506
-0.972353	0.789665
-1.03238	-1.73218
-0.982356	0.798574
-1.04239	-1.74771
-0.992355	0.818429
-1.05234	-1.77177
-1.00237	0.824793
-1.0624	-1.79111
-1.01237	0.838539
-1.07238	-1.80499
-1.02237	0.846557
-1.08237	-1.83515
-1.03237	0.864758
-1.09236	-1.86913
-1.04242	0.869212
-1.10234	-1.90337
-1.05236	0.892886
-1.11237	-1.95072
-1.06238	0.915923
-1.12239	-1.97936
-1.07237	0.928778