File: VFSWV_data_prep/Example_data/CoPc_VFSWV_txt_data/CoPc_CNT_VFSWV_scans_54_53_C02.txt
Ewe/V	<I>/mA
-0.122467	0.0192143
-0.0725163	0.0353222
-0.132496	0.0214722
-0.082485	0.0312436
-0.142465	0.0184523
-0.0925109	0.0332048
-0.152491	0.0141134
-0.102514	0.0379082
-0.162456	0.0198582
-0.112506	0.0344544
-0.172448	0.0224962
-0.122455	0.030827
-0.182454	0.0219929
-0.132477	0.028189
-0.192427	0.0245269
-0.142461	0.0322155
-0.20246	0.0169077
-0.152472	0.0265922
-0.212406	0.0206565
-0.162471	0.0269393
-0.222463	0.0223227
-0.172463	0.0262277
-0.232462	0.0208301
-0.182424	0.0290047
-0.242396	0.0173589
-0.192431	0.0301155
-0.252426	0.0205697
-0.202445	0.0312956
-0.262475	0.0144084
-0.212429	0.0300113
-0.272444	0.0221491
-0.222489	0.0309138
-0.282431	0.0160052
-0.232435	0.0314171
-0.292465	0.006633
-0.242385	0.0262451
-0.302479	0.0154324
-0.252399	0.0249434
-0.312418	0.00784791
-0.262395	0.0237111
-0.322413	0.00800411
-0.272394	0.024388
-0.332416	0.00494949
-0.282424	0.0238326
-0.342392	0.00835123
-0.29243	0.0273212
-0.352392	0.00427261
-0.302441	0.0202573
-0.362376	0.00633795
-0.312437	0.0264881
-0.37239	0.0140613
-0.322375	0.0289179
-0.382412	0.0124472
-0.332389	0.031799
-0.392388	0.00885455
-0.342438	0.0285014
-0.402395	0.00875042
-0.352376	0.0325626
-0.412345	0.0060429
-0.362433	0.0319378
-0.422428	0.00135683
-0.372413	0.0316081
-0.432511	0.000957644
-0.382397	0.0287096
-0.442495	-0.000361399
-0.392411	0.0268526
-0.452479	-0.00317305
-0.402395	0.0226351
-0.462475	-0.00608883
-0.412395	0.026679
-0.472462	-0.0134998
-0.422382	0.0277551
-0.482477	-0.0100807
-0.432465	0.0286576
-0.492434	-0.0134824
-0.442469	0.0303411
-0.502426	-0.0170924
-0.452468	0.031313
-0.51241	-0.0240695
-0.462448	0.0324585
-0.522493	-0.0259266
-0.47247	0.0340552
-0.532435	-0.0267943
-0.48242	0.0370751
-0.542495	-0.0279572
-0.492449	0.036433
-0.552487	-0.0309077
-0.502514	0.045996
-0.562436	-0.0306473
-0.512486	0.0450415
-0.572435	-0.0467188
-0.522428	0.0431497
-0.58245	-0.0425014
-0.532488	0.0432712
-0.592453	-0.0469271
-0.542438	0.0451803
-0.602418	-0.0495652
-0.552456	0.0483391
-0.612421	-0.0484544
-0.562432	0.0424902
-0.622413	-0.0522901
-0.572466	0.0461175
-0.632412	-0.0493049
-0.582454	0.04492
-0.642407	-0.0542166
-0.59243	0.0421951
-0.652372	-0.0498255
-0.602452	0.0416224
-0.662394	-0.0532967
-0.612452	0.0447117
-0.672451	-0.0541471
-0.622382	0.0392793
-0.682435	-0.0526198
-0.632393	0.0392793
-0.692399	-0.0529322
-0.6424	0.0437745
-0.702441	-0.0518215
-0.652368	0.0416397
-0.712394	-0.048871
-0.662394	0.037509
-0.722336	-0.0530711
-0.672405	0.0397132
-0.732366	-0.050728
-0.682389	0.0439307
-0.742403	-0.0491313
-0.69243	0.0358602
-0.752368	-0.0490098
-0.702384	0.0401992
-0.762398	-0.0549976
-0.712417	0.0403207
-0.772443	-0.0540777
-0.722386	0.0342635
-0.782354	-0.0557612
-0.732412	0.0366065
-0.792369	-0.0549976
-0.742411	0.0373008
-0.802376	-0.0531405
-0.752372	0.0333957
-0.812344	-0.0578092
-0.762341	0.0329097
-0.822351	-0.0544769
-0.772325	0.0317295
-0.832457	-0.0520471
-0.782381	0.0283104
-0.842407	-0.0499644
-0.792289	0.0329618
-0.852464	-0.0512661
-0.802341	0.0310527
-0.862413	-0.0492875
-0.812364	0.0278765
-0.872466	-0.0484197
-0.822401	0.0271997
-0.882412	-0.0426055
-0.83248	0.0278765
-0.89246	-0.045261
-0.842449	0.0326494
-0.902441	-0.0408005
-0.852425	0.0253252
-0.912432	-0.0399154
-0.862463	0.0261583
-0.922389	-0.0362186
-0.872431	0.024145
-0.932434	-0.0368087
-0.882511	0.0228086
-0.942415	-0.0329036
-0.892464	0.0181052
-0.952391	-0.0357326
-0.902421	0.0248219
-0.96239	-0.0337714
-0.912455	0.0291088
-0.972397	-0.0318102
-0.922428	0.0235029
-0.98245	-0.0324176
-0.932442	0.0244227
-0.992399	-0.0343788
-0.942479	0.0235202
-1.00242	-0.0329383
-0.952391	0.0246657
-1.01241	-0.0291027
-0.962444	0.0251517
-1.02237	-0.0308035
-0.972412	0.0286576
-1.03243	-0.0237397
-0.982419	0.0251517
-1.04237	-0.0322614
-0.992411	0.0254641
-1.05238	-0.0344656
-1.00238	0.0216458
-1.06237	-0.0345177
-1.01233	0.0244401
-1.07241	-0.0392385
-1.02244	0.0230516
-1.08237	-0.037069
-1.03243	0.0268178
-1.09236	-0.0415989
-1.04238	0.0228086
-1.10244	-0.0444626
-1.05244	0.0230343
-1.11236	-0.0450874
-1.06242	0.0194937
-1.12236	-0.041165
-1.0724	0.029803