File: VFSWV_data_prep/Example_data/CoPc_VFSWV_txt_data/CoPc_CNT_VFSWV_scans_19_18_C02.txt
Ewe/V	<I>/mA
-0.121876	-0.0206104
-0.0719178	0.121465
-0.131875	-0.0904498
-0.081917	0.108737
-0.141928	-0.0926135
-0.0919506	0.100719
-0.151851	-0.100123
-0.101965	0.100846
-0.162041	-0.10305
-0.111968	0.108356
-0.172006	-0.105977
-0.121964	0.101864
-0.181917	-0.107887
-0.131875	0.102374
-0.19205	-0.114123
-0.141905	0.105683
-0.202091	-0.123414
-0.152003	0.103519
-0.212022	-0.124305
-0.161964	0.111028
-0.22196	-0.121887
-0.171899	0.111919
-0.232024	-0.126851
-0.18202	0.108228
-0.242023	-0.142888
-0.192042	0.106065
-0.251973	-0.137287
-0.202022	0.118538
-0.261976	-0.149506
-0.211972	0.112683
-0.271998	-0.155997
-0.221979	0.118538
-0.281951	-0.167834
-0.232077	0.120829
-0.291969	-0.166434
-0.24205	0.122738
-0.302049	-0.180307
-0.251976	0.127702
-0.311987	-0.18387
-0.261995	0.132793
-0.32194	-0.197998
-0.272021	0.136102
-0.331928	-0.211108
-0.28194	0.138647
-0.341931	-0.231217
-0.291924	0.148829
-0.352014	-0.253618
-0.301953	0.15112
-0.361941	-0.283528
-0.31201	0.159266
-0.371933	-0.325911
-0.321952	0.168939
-0.382046	-0.380003
-0.33189	0.199485
-0.392034	-0.441096
-0.341977	0.217304
-0.401923	-0.534389
-0.351888	0.253323
-0.411979	-0.65021
-0.361953	0.304234
-0.421967	-0.800014
-0.371956	0.377545
-0.431932	-0.990165
-0.38197	0.476565
-0.441874	-1.22143
-0.391904	0.610333
-0.451995	-1.49532
-0.401919	0.797938
-0.461807	-1.80524
-0.411975	1.0222
-0.471975	-2.13641
-0.421906	1.28719
-0.481924	-2.4961
-0.431982	1.57559
-0.491889	-2.85158
-0.44195	1.86286
-0.501934	-3.20375
-0.451911	2.13179
-0.511888	-3.54332
-0.461899	2.3698
-0.521921	-3.84802
-0.471872	2.56669
-0.531882	-4.12714
-0.481955	2.72184
-0.541889	-4.35115
-0.491885	2.83919
-0.551842	-4.53646
-0.501984	2.92752
-0.561853	-4.6729
-0.511865	2.9736
-0.572101	-4.76861
-0.521936	3.00223
-0.581897	-4.78299
-0.531909	2.99625
-0.591973	-4.74863
-0.54182	2.96749
-0.60193	-4.6533
-0.551915	2.91938
-0.612002	-4.48937
-0.5618	2.8327
-0.622009	-4.27122
-0.572036	2.71752
-0.632042	-3.99554
-0.581936	2.58515
-0.642007	-3.69096
-0.592034	2.42274
-0.651987	-3.36425
-0.601965	2.24939
-0.661903	-3.03244
-0.611952	2.05504
-0.671982	-2.72685
-0.621994	1.86108
-0.682012	-2.4336
-0.632039	1.66443
-0.692038	-2.19012
-0.64195	1.47505
-0.701922	-1.98992
-0.651968	1.31252
-0.711987	-1.8251
-0.661994	1.1524
-0.721967	-1.69133
-0.671944	1.02665
-0.731928	-1.59269
-0.681947	0.919996
-0.741931	-1.52511
-0.691977	0.837775
-0.751903	-1.47178
-0.702014	0.769555
-0.762063	-1.43869
-0.711941	0.712535
-0.771894	-1.41234
-0.721932	0.671043
-0.781916	-1.40547
-0.731958	0.644315
-0.791927	-1.38701
-0.741912	0.618224
-0.801957	-1.37543
-0.751865	0.605496
-0.811902	-1.37263
-0.761864	0.578514
-0.821925	-1.36067
-0.771837	0.571132
-0.831867	-1.34488
-0.782031	0.559549
-0.841904	-1.33343
-0.791957	0.551149
-0.852052	-1.31586
-0.801888	0.53524
-0.861914	-1.29512
-0.811876	0.521876
-0.871902	-1.27221
-0.821974	0.495657
-0.881954	-1.23988
-0.831981	0.48382
-0.891912	-1.21519
-0.84195	0.464601
-0.901976	-1.18464
-0.85193	0.450474
-0.911876	-1.15104
-0.862013	0.431128
-0.921879	-1.1135
-0.871925	0.413691
-0.931924	-1.09415
-0.881931	0.401982
-0.9419	-1.07353
-0.891969	0.396636
-0.951888	-1.05609
-0.901899	0.377799
-0.961834	-1.03764
-0.911963	0.376908
-0.971974	-1.03026
-0.921921	0.377672
-0.98195	-1.02415
-0.931828	0.383908
-0.99203	-1.01371
-0.94195	0.383399
-1.00198	-1.02135
-0.951976	0.394345
-1.01189	-1.01511
-0.961956	0.396509
-1.02199	-1.02097
-0.971814	0.409236
-1.032	-1.0314
-0.982034	0.4114
-1.04204	-1.03344
-0.991965	0.421709
-1.05195	-1.04108
-1.00198	0.430237
-1.06194	-1.06106
-1.01191	0.439274
-1.07198	-1.07837
-1.02194	0.442583
-1.08194	-1.09924
-1.032	0.459256
-1.09191	-1.12788
-1.042	0.466892
-1.10211	-1.14786
-1.05197	0.48102
-1.11194	-1.18642
-1.06206	0.496039
-1.12196	-1.21417
-1.07194	0.511566