File: VFSWV_data_prep/Example_data/CoPc_VFSWV_txt_data/CoPc_CNT_VFSWV_scans_43_42_C02.txt
Ewe/V	<I>/mA
-0.122496	0.00699578
-0.0723738	0.028511
-0.132396	0.0032679
-0.0823883	0.0318202
-0.142479	0.00106178
-0.0923799	0.022232
-0.152413	-0.00559901
-0.102356	0.0259231
-0.162413	-0.00424139
-0.112306	0.0201108
-0.172439	-0.00305348
-0.122473	0.0258382
-0.1824	-0.00513233
-0.13248	0.0277049
-0.192422	-0.00398684
-0.142452	0.0275776
-0.20239	-0.000677661
-0.152463	0.0295716
-0.212466	0.000382973
-0.162462	0.0280019
-0.222454	-0.00305348
-0.172412	0.0281292
-0.232423	-0.00059281
-0.182472	0.0278746
-0.242395	-0.00360501
-0.192395	0.0226139
-0.252406	-0.0113689
-0.202394	0.0292747
-0.26239	-0.0149326
-0.212436	0.0186683
-0.272381	-0.0102234
-0.222446	0.022826
-0.282403	-0.0165872
-0.232438	0.0231654
-0.29241	-0.0130659
-0.242449	0.020832
-0.302398	-0.0149326
-0.252413	0.0220623
-0.312382	-0.0156962
-0.262439	0.0272382
-0.322393	-0.0153993
-0.272355	0.0249048
-0.33235	-0.0177327
-0.282411	0.0260928
-0.342395	-0.0251147
-0.292406	0.0183289
-0.352383	-0.0271511
-0.30239	0.022529
-0.36239	-0.0229934
-0.312443	0.0261776
-0.372438	-0.024351
-0.322397	0.0220199
-0.382361	-0.0296542
-0.332411	0.0254564
-0.392376	-0.0339392
-0.342372	0.0247351
-0.402367	-0.0369089
-0.352367	0.0200259
-0.41239	-0.0432727
-0.362374	0.0260503
-0.422358	-0.0452243
-0.372454	0.0294019
-0.432323	-0.0509517
-0.382361	0.0271534
-0.442349	-0.0540064
-0.392422	0.0295716
-0.452356	-0.0686007
-0.402406	0.0336869
-0.462347	-0.0843829
-0.412336	0.0336445
-0.472316	-0.102583
-0.422331	0.0365294
-0.482346	-0.130966
-0.432388	0.0476448
-0.492337	-0.168725
-0.442338	0.0595664
-0.502344	-0.215096
-0.452333	0.0746274
-0.51234	-0.268509
-0.46234	0.0992765
-0.522335	-0.32205
-0.472328	0.126556
-0.532399	-0.375591
-0.482384	0.172206
-0.542402	-0.425441
-0.492307	0.21794
-0.552451	-0.462605
-0.502337	0.269614
-0.562374	-0.48666
-0.512321	0.309367
-0.572423	-0.488103
-0.522358	0.342374
-0.582407	-0.470708
-0.532422	0.351241
-0.592387	-0.445932
-0.542429	0.362908
-0.602405	-0.396082
-0.552463	0.348017
-0.612401	-0.358748
-0.562389	0.32307
-0.622415	-0.317595
-0.572423	0.280603
-0.632411	-0.286794
-0.582399	0.250396
-0.642448	-0.259812
-0.592444	0.211619
-0.652386	-0.241993
-0.602386	0.182091
-0.662408	-0.227908
-0.612439	0.155617
-0.672339	-0.21849
-0.622415	0.129696
-0.682395	-0.210089
-0.632422	0.110477
-0.692402	-0.210514
-0.642398	0.101737
-0.702401	-0.203089
-0.652359	0.0901551
-0.712389	-0.20101
-0.662416	0.0862519
-0.722365	-0.19698
-0.672442	0.0804821
-0.732346	-0.200459
-0.682369	0.075391
-0.742364	-0.204871
-0.692387	0.0703424
-0.752382	-0.200798
-0.70239	0.0719122
-0.762336	-0.199398
-0.712366	0.0667363
-0.772327	-0.201732
-0.722385	0.0716152
-0.782346	-0.201265
-0.732399	0.0696212
-0.792372	-0.209198
-0.742314	0.0655484
-0.802317	-0.210174
-0.752367	0.0597785
-0.812362	-0.202453
-0.762366	0.0659726
-0.8223	-0.204319
-0.772346	0.057233
-0.832357	-0.200841
-0.782349	0.0615179
-0.842314	-0.197362
-0.792372	0.0568087
-0.852352	-0.196259
-0.802321	0.055239
-0.86237	-0.18404
-0.812313	0.0562148
-0.872316	-0.184889
-0.822304	0.0515904
-0.882342	-0.178949
-0.832288	0.052651
-0.892379	-0.175088
-0.842391	0.0433175
-0.90231	-0.16724
-0.852355	0.0405174
-0.912358	-0.160494
-0.862393	0.0369112
-0.922327	-0.152221
-0.8724	0.0377597
-0.932395	-0.146282
-0.882326	0.0351294
-0.942444	-0.145772
-0.892299	0.032796
-0.952462	-0.143015
-0.902268	0.0280867
-0.962439	-0.138306
-0.912305	0.027917
-0.972361	-0.141912
-0.922361	0.026517
-0.982372	-0.134445
-0.932441	0.0236321
-0.992402	-0.135378
-0.942448	0.0317353
-1.00242	-0.137542
-0.952405	0.0299535
-1.0124	-0.138136
-0.962416	0.0299959
-1.02241	-0.135463
-0.972415	0.0313535
-1.03238	-0.136821
-0.982364	0.0183713
-1.0424	-0.139366
-0.992394	0.0284261
-1.05243	-0.133978
-1.00244	0.0293171
-1.06235	-0.143312
-1.01242	0.0285959
-1.07238	-0.146451
-1.02239	0.0323293
-1.08244	-0.146791
-1.03243	0.032499
-1.09239	-0.149336
-1.04238	0.0323293
-1.10237	-0.15413
-1.0524	0.0319899
-1.11232	-0.159561
-1.0624	0.0361051
-1.1224	-0.165076
-1.07238	0.0323293