File: VFSWV_data_prep/Example_data/CoPc_VFSWV_txt_data/CoPc_CNT_VFSWV_scans_30_29_C02.txt
Ewe/V	<I>/mA
-0.122341	-0.0136611
-0.0723982	0.0477976
-0.132352	-0.0191751
-0.0823096	0.0442084
-0.142343	-0.0196333
-0.0923623	0.0381755
-0.152304	-0.0215425
-0.102312	0.0413065
-0.162441	-0.0214661
-0.112311	0.041612
-0.172425	-0.0291027
-0.122314	0.038481
-0.182401	-0.0303245
-0.132329	0.0334408
-0.192408	-0.0366629
-0.142358	0.0335172
-0.202346	-0.033761
-0.152327	0.0337463
-0.212414	-0.0285681
-0.162452	0.0341281
-0.222413	-0.0410157
-0.172459	0.0364955
-0.232397	-0.0382666
-0.182397	0.0403137
-0.242385	-0.0451395
-0.192423	0.0400083
-0.252365	-0.0395648
-0.202442	0.0390155
-0.262383	-0.0470486
-0.212372	0.0328299
-0.272379	-0.0432303
-0.222436	0.0400846
-0.282424	-0.0501796
-0.232397	0.0402374
-0.292358	-0.0534633
-0.2424	0.0419938
-0.302377	-0.0540743
-0.252422	0.0396265
-0.31241	-0.0599544
-0.262402	0.0393974
-0.322405	-0.0627036
-0.272383	0.044132
-0.33234	-0.0616344
-0.282378	0.0440557
-0.342358	-0.0693474
-0.2924	0.0458121
-0.352346	-0.0675146
-0.302411	0.0458121
-0.362364	-0.0811077
-0.312376	0.0439793
-0.372375	-0.0818714
-0.322398	0.046423
-0.382321	-0.0899661
-0.332367	0.0468812
-0.392335	-0.108828
-0.342385	0.057496
-0.402376	-0.121352
-0.352342	0.0616198
-0.412334	-0.144873
-0.362395	0.0672708
-0.422348	-0.185194
-0.372379	0.0726164
-0.432309	-0.240101
-0.382355	0.0868968
-0.442335	-0.314405
-0.392301	0.102552
-0.452323	-0.421622
-0.402346	0.137298
-0.462311	-0.542509
-0.412357	0.192816
-0.472382	-0.705015
-0.422356	0.271549
-0.482347	-0.89486
-0.432363	0.379454
-0.492343	-1.10601
-0.442385	0.52997
-0.502353	-1.33282
-0.452361	0.715081
-0.512372	-1.56665
-0.462318	0.917297
-0.52234	-1.78758
-0.472379	1.12524
-0.532294	-1.99697
-0.482344	1.30798
-0.542289	-2.17238
-0.492331	1.47278
-0.552334	-2.30885
-0.502266	1.60459
-0.562356	-2.4024
-0.512314	1.7005
-0.572314	-2.44088
-0.52234	1.75831
-0.582427	-2.4263
-0.532317	1.77733
-0.592385	-2.35627
-0.542327	1.74541
-0.602426	-2.22561
-0.552323	1.69073
-0.612379	-2.05562
-0.562326	1.59848
-0.62242	-1.84653
-0.572325	1.46957
-0.632427	-1.62973
-0.582389	1.32272
-0.642388	-1.41125
-0.592392	1.17083
-0.652411	-1.2117
-0.602426	1.01818
-0.662368	-1.04347
-0.612402	0.871554
-0.672436	-0.910592
-0.622394	0.732798
-0.682408	-0.804902
-0.632374	0.612293
-0.692354	-0.721816
-0.642358	0.504541
-0.702342	-0.670727
-0.652338	0.433062
-0.71228	-0.62422
-0.662372	0.373803
-0.72234	-0.604442
-0.672386	0.32386
-0.732351	-0.584434
-0.682339	0.284455
-0.742278	-0.568397
-0.692381	0.260171
-0.752315	-0.567481
-0.702391	0.242912
-0.762371	-0.566183
-0.712341	0.232679
-0.77231	-0.55847
-0.722348	0.220002
-0.78232	-0.559539
-0.73232	0.204729
-0.792293	-0.560455
-0.742362	0.201064
-0.802334	-0.554346
-0.75233	0.203889
-0.812352	-0.54816
-0.762337	0.193274
-0.822317	-0.552131
-0.77234	0.193274
-0.832301	-0.541058
-0.782362	0.183576
-0.842335	-0.541898
-0.79232	0.177161
-0.852326	-0.528458
-0.802342	0.16731
-0.862394	-0.523952
-0.812371	0.164713
-0.872294	-0.49669
-0.822371	0.156542
-0.882316	-0.485082
-0.832332	0.147149
-0.892293	-0.478515
-0.842331	0.143484
-0.902311	-0.451558
-0.852323	0.133709
-0.912329	-0.442317
-0.862306	0.129814
-0.922267	-0.419942
-0.872287	0.122101
-0.932354	-0.414902
-0.88237	0.111257
-0.942308	-0.402836
-0.892293	0.106217
-0.952341	-0.390541
-0.902349	0.092166
-0.962295	-0.387029
-0.91231	0.0938461
-0.972248	-0.377788
-0.922279	0.0863623
-0.982301	-0.375497
-0.932286	0.0935406
-0.992377	-0.369312
-0.942296	0.0898751
-1.00241	-0.37145
-0.95233	0.0894169
-1.01244	-0.366257
-0.962306	0.0935406
-1.02241	-0.372443
-0.972233	0.093617
-1.03238	-0.372901
-0.982255	0.0914024
-1.04239	-0.37481
-0.992392	0.0954498
-1.05232	-0.381072
-1.00241	0.0988099
-1.06239	-0.383058
-1.01237	0.10133
-1.07238	-0.390771
-1.02235	0.102323
-1.08234	-0.397796
-1.03242	0.109654
-1.09241	-0.406426
-1.04241	0.115381
-1.10239	-0.422691
-1.0524	0.120421
-1.11237	-0.430252
-1.06236	0.121643
-1.12229	-0.443463
-1.07234	0.126607