File: VFSWV_data_prep/Example_data/CoPc_VFSWV_txt_data/CoPc_CNT_VFSWV_scans_65_64_C02.txt
Ewe/V	<I>/mA
-0.122653	0.0124559
-0.072707	0.0213221
-0.132702	0.0179869
-0.0826794	0.0243923
-0.14269	0.0197324
-0.0926711	0.0231533
-0.15264	0.0193973
-0.10267	0.0217195
-0.162654	0.0165609
-0.11265	0.0184778
-0.172634	0.0145271
-0.12265	0.0227637
-0.182599	0.0194597
-0.132676	0.0193194
-0.192602	0.0248442
-0.142694	0.023878
-0.202685	0.0224286
-0.152674	0.0233247
-0.212639	0.0241351
-0.162688	0.0258884
-0.222623	0.0122595
-0.17263	0.0217506
-0.232645	0.0155635
-0.18263	0.0230909
-0.242564	0.0160622
-0.192629	0.0190856
-0.252624	0.0113789
-0.202666	0.0268547
-0.262582	0.0147608
-0.212624	0.0229039
-0.272703	0.0161791
-0.222634	0.0282106
-0.282752	0.0217584
-0.232656	0.0232546
-0.292705	0.0130465
-0.242629	0.0216493
-0.302693	0.0128751
-0.252613	0.0187272
-0.312681	0.0148388
-0.262623	0.0199272
-0.322703	0.0156959
-0.272707	0.0208156
-0.332675	0.0131868
-0.282721	0.0204181
-0.342709	0.0113166
-0.292694	0.0188908
-0.352704	0.0136855
-0.302674	0.0192181
-0.362673	0.00542553
-0.312681	0.0146595
-0.372691	0.0119322
-0.322703	0.0156881
-0.382664	0.00747494
-0.33266	0.0196779
-0.392625	0.0119634
-0.342655	0.0221169
-0.402651	0.00858146
-0.352723	0.0174726
-0.412642	0.0122517
-0.362662	0.0182207
-0.422603	0.0117686
-0.372695	0.0212286
-0.432637	0.00777884
-0.382694	0.0209948
-0.442663	0.00878406
-0.392682	0.0238546
-0.45262	0.00780222
-0.402674	0.0229818
-0.4626	0.00989838
-0.412616	0.0237845
-0.472619	0.00577619
-0.422626	0.0215325
-0.482591	0.00791911
-0.432641	0.0213299
-0.492629	0.00738143
-0.442644	0.0276573
-0.502609	0.00167738
-0.452609	0.0257014
-0.512596	0.00159946
-0.462642	0.0233091
-0.5226	0.00205142
-0.472615	0.0222104
-0.532622	0.00234753
-0.482633	0.0262547
-0.542667	-0.00253832
-0.49264	0.0283119
-0.552616	-0.001011
-0.502582	0.0251326
-0.562608	-0.00203181
-0.512631	0.0267456
-0.572664	-0.00231234
-0.522573	0.031686
-0.58256	-0.00376952
-0.532618	0.0320133
-0.592602	-0.00323184
-0.542625	0.0295041
-0.602582	-0.00454876
-0.552597	0.0366342
-0.612604	-0.00673064
-0.562589	0.028943
-0.622569	-0.00842159
-0.572599	0.0309067
-0.632591	-0.00906836
-0.582614	0.0301587
-0.64259	-0.00807093
-0.592567	0.0309535
-0.652502	-0.00334094
-0.602574	0.0292002
-0.662566	-0.00832029
-0.612593	0.0300807
-0.672584	-0.00701896
-0.62258	0.031086
-0.682686	-0.00809431
-0.632522	0.0295197
-0.692655	-0.000894117
-0.642502	0.0320288
-0.702601	-0.00431499
-0.652597	0.0342263
-0.712688	-0.00537476
-0.662539	0.0328782
-0.722622	-0.00820341
-0.672531	0.0272911
-0.732614	-0.00770469
-0.68266	0.0332912
-0.742651	-0.00600594
-0.692659	0.0300729
-0.752631	-0.00598257
-0.702673	0.0283274
-0.7626	-0.00705013
-0.712608	0.0319743
-0.772637	-0.00765014
-0.722668	0.0316003
-0.782648	-0.00863199
-0.732633	0.031008
-0.792605	-0.00580334
-0.742659	0.0321925
-0.802612	-0.00723714
-0.752608	0.0329639
-0.812611	-0.00393316
-0.762646	0.0328003
-0.822595	-0.00654362
-0.772603	0.0290989
-0.832621	-0.00747871
-0.782618	0.0231611
-0.84264	-0.0104476
-0.792624	0.0276963
-0.852643	-0.00777482
-0.802582	0.0305795
-0.862627	-0.00668388
-0.812619	0.0272209
-0.872607	-0.00789171
-0.822607	0.0248286
-0.882583	-0.00319288
-0.832591	0.0291534
-0.892586	-0.00244481
-0.842636	0.0269092
-0.902578	-0.00137725
-0.852608	0.0241585
-0.912592	-0.00176687
-0.8626	0.0232078
-0.922614	-0.00464227
-0.872607	0.0229896
-0.932621	-0.00532021
-0.882617	0.0229351
-0.942594	-0.00208636
-0.892621	0.0221325
-0.95257	-0.00372276
-0.90257	0.0244001
-0.96252	-0.00107334
-0.912623	0.0222494
-0.972557	-0.00345003
-0.922565	0.0233247
-0.982575	0.000633196
-0.932636	0.0234416
-0.992571	-0.00192272
-0.942594	0.0238858
-1.00254	0.00173972
-0.952597	0.0244312
-1.01251	0.000391632
-0.962569	0.0246572
-1.02255	-0.00249936
-0.972591	0.0254988
-1.03257	-0.00525008
-0.982564	0.0210883
-1.04258	-0.00436954
-0.992582	0.0267845
-1.05252	0.00347743
-1.00255	0.0240572
-1.06252	-0.00202402
-1.01254	0.021626
-1.07254	0.000508518
-1.02261	0.0229507
-1.08258	-0.0045098
-1.03253	0.026278
-1.09261	-0.00574879
-1.04254	0.0216493
-1.10263	-0.00412797
-1.0526	0.025039
-1.11265	-0.00480591
-1.06255	0.0221403
-1.12264	-0.00546827
-1.07254	0.025117