File: VFSWV_data_prep/Example_data/CoPc_VFSWV_txt_data/CoPc_CNT_VFSWV_scans_73_72_C02.txt
Ewe/V	<I>/mA
-0.122334	0.02876
-0.0723793	0.0170806
-0.132295	0.0169581
-0.082348	0.0147618
-0.142427	0.0134373
-0.092309	0.0137062
-0.152388	0.0123111
-0.102282	0.0137403
-0.162411	0.0118604
-0.1123	0.0131151
-0.172387	0.0104114
-0.122311	0.0138917
-0.182436	0.0151179
-0.132291	0.0136741
-0.192393	0.0136358
-0.142389	0.0141367
-0.2024	0.0159077
-0.152392	0.0163904
-0.212365	0.0164253
-0.162388	0.0183779
-0.222394	0.0171339
-0.172406	0.0201713
-0.232382	0.0167405
-0.182424	0.018292
-0.242366	0.0181129
-0.192435	0.0195173
-0.252392	0.0139688
-0.202396	0.0199493
-0.26241	0.014707
-0.212399	0.0180194
-0.272356	0.0174205
-0.222379	0.0192528
-0.282397	0.0153933
-0.232394	0.0141655
-0.292351	0.0214324
-0.242431	0.0195255
-0.302404	0.0215165
-0.252369	0.021651
-0.312376	0.018489
-0.262368	0.0267336
-0.322379	0.0225239
-0.272394	0.0227314
-0.332352	0.0195564
-0.282355	0.0192199
-0.342389	0.0191387
-0.292385	0.0208841
-0.352369	0.0248043
-0.302392	0.0246163
-0.362368	0.0258307
-0.312353	0.0214762
-0.372387	0.0195995
-0.322417	0.0197399
-0.382317	0.0182339
-0.332359	0.0206309
-0.392335	0.0241108
-0.342389	0.0207512
-0.402346	0.0128771
-0.352338	0.0174456
-0.412326	0.0182088
-0.362368	0.0168072
-0.422306	0.0133916
-0.372398	0.012994
-0.432382	0.010673
-0.382351	0.0177603
-0.442332	0.0131543
-0.392381	0.0162318
-0.452316	0.0139861
-0.402327	0.0160877
-0.462292	0.0130667
-0.412288	0.0154409
-0.472283	0.0118683
-0.422322	0.0176336
-0.482386	0.0116142
-0.432321	0.014062
-0.492389	0.00987485
-0.442335	0.0131111
-0.502392	0.0107337
-0.452342	0.0176238
-0.512391	0.012336
-0.462368	0.017701
-0.522348	0.0180565
-0.472295	0.0234305
-0.532355	0.0160597
-0.482386	0.0178703
-0.5424	0.0164335
-0.492358	0.0227648
-0.552377	0.0188188
-0.502392	0.0211578
-0.562395	0.0161516
-0.512433	0.0187079
-0.572363	0.0151483
-0.52236	0.0220515
-0.582328	0.0156922
-0.532409	0.0207084
-0.592404	0.0143905
-0.542396	0.0220226
-0.602334	0.0161721
-0.552422	0.0181004
-0.612376	0.0153624
-0.562383	0.0169586
-0.622379	0.0119941
-0.572379	0.0175551
-0.63234	0.0115728
-0.582367	0.0167497
-0.642362	0.0124812
-0.592339	0.0164952
-0.652327	0.00850255
-0.602346	0.0162599
-0.662379	0.00948527
-0.612391	0.0184156
-0.672402	0.0125738
-0.622367	0.0167966
-0.68234	0.00746812
-0.63237	0.019732
-0.69232	0.00915136
-0.642366	0.022479
-0.70233	0.00932143
-0.65235	0.0153657
-0.712288	0.0131452
-0.662357	0.018563
-0.72234	0.00996019
-0.672405	0.0168398
-0.732343	0.0103353
-0.682366	0.0160629
-0.742335	0.0114656
-0.69235	0.0180878
-0.752304	0.0153452
-0.702357	0.0144731
-0.762257	0.00621721
-0.712337	0.0155583
-0.772321	0.00803462
-0.722337	0.0190959
-0.782271	0.00957441
-0.732313	0.0163197
-0.792274	0.00942153
-0.742385	0.0178469
-0.802315	0.0105621
-0.752296	0.014904
-0.81228	0.0104223
-0.762272	0.0160378
-0.822413	0.00956878
-0.772337	0.0122363
-0.832397	0.00839424
-0.782321	0.0137938
-0.84243	0.00717984
-0.792343	0.0158025
-0.852407	0.00756897
-0.802323	0.0124019
-0.862333	0.00934912
-0.81228	0.0155405
-0.872398	0.0126906
-0.822413	0.0137818
-0.882427	0.00935748
-0.832393	0.0151067
-0.892388	0.00828106
-0.842381	0.0150597
-0.902365	0.00546785
-0.85243	0.00938197
-0.912391	0.000987377
-0.862379	0.0111177
-0.922371	0.00237504
-0.872413	0.00486195
-0.932443	0.00343762
-0.882416	0.00632111
-0.942354	-0.00324286
-0.892419	0.00513744
-0.952407	0.00261159
-0.902411	0.0100778
-0.962375	0.00164713
-0.912402	0.00623501
-0.972382	0.00264856
-0.922363	0.00434792
-0.982339	0.00252732
-0.932362	0.00801287
-0.992339	0.0028667
-0.942362	0.00800617
-1.00236	0.00485206
-0.952353	0.00900441
-1.01239	0.00314281
-0.962379	0.00814476
-1.02233	0.000233456
-0.972298	0.0057972
-1.03236	6.91637e-05
-0.982347	0.00642014
-1.04241	0.00217987
-0.992331	0.00865042
-1.05234	1.19654e-05
-1.00236	0.0130933
-1.0623	0.00332398
-1.01232	0.0163417
-1.07233	0.00688579
-1.02237	0.0131202
-1.08229	0.00587067
-1.03237	0.0115477
-1.09232	0.00780978
-1.04231	0.0126433
-1.10236	0.00504434
-1.05233	0.00995487
-1.11231	0.000922573
-1.06228	0.00880543
-1.12229	-0.000583748
-1.0723	0.00571277