File: VFSWV_data_prep/Example_data/CoPc_VFSWV_txt_data/CoPc_CNT_VFSWV_scans_05_4_C02.txt
Ewe/V	<I>/mA
-0.122312	-1.05353
-0.0723917	2.34549
-0.132299	-2.65589
-0.0823986	2.12937
-0.142348	-2.71278
-0.0923368	2.11677
-0.152355	-2.73989
-0.102374	2.10914
-0.162301	-2.75841
-0.112362	2.11811
-0.172296	-2.78285
-0.122369	2.12097
-0.18233	-2.81721
-0.132357	2.13262
-0.192337	-2.8407
-0.142318	2.15095
-0.202347	-2.86017
-0.152332	2.15305
-0.212282	-2.88537
-0.162343	2.16698
-0.2223	-2.90962
-0.172319	2.17577
-0.232295	-2.9289
-0.182292	2.17844
-0.242356	-2.9499
-0.192279	2.18741
-0.252294	-2.96536
-0.202321	2.18741
-0.262293	-2.9919
-0.21232	2.19448
-0.272395	-3.01691
-0.222323	2.20536
-0.282391	-3.03887
-0.232341	2.2149
-0.292424	-3.07304
-0.242264	2.22426
-0.30245	-3.11275
-0.25229	2.23094
-0.312404	-3.15876
-0.262274	2.25347
-0.322399	-3.22119
-0.272361	2.27294
-0.332326	-3.27197
-0.282398	2.3054
-0.34234	-3.3512
-0.292378	2.34931
-0.352374	-3.44971
-0.302416	2.38615
-0.362373	-3.55758
-0.312369	2.46424
-0.372399	-3.70936
-0.322376	2.54461
-0.382402	-3.86381
-0.332379	2.63167
-0.392356	-4.06942
-0.342398	2.73934
-0.402374	-4.29088
-0.35232	2.86898
-0.412331	-4.54155
-0.362335	3.00051
-0.422372	-4.83174
-0.372391	3.12766
-0.432307	-5.13568
-0.382364	3.27639
-0.44231	-5.46768
-0.392371	3.39666
-0.452351	-5.82239
-0.402336	3.49136
-0.46235	-6.17368
-0.41235	3.56161
-0.4723	-6.54863
-0.422307	3.59063
-0.482287	-6.91041
-0.432368	3.58051
-0.49231	-7.27678
-0.442332	3.53259
-0.502343	-7.6315
-0.452332	3.46253
-0.512323	-7.98278
-0.462369	3.35237
-0.522281	-8.33177
-0.472311	3.23591
-0.532291	-8.6548
-0.482318	3.08853
-0.542287	-8.96484
-0.49229	2.93217
-0.55232	-9.25446
-0.502328	2.77657
-0.562224	-9.51315
-0.512289	2.62651
-0.572261	-9.73785
-0.5223	2.48906
-0.582249	-9.93469
-0.532345	2.36763
-0.59229	-10.0632
-0.542298	2.2844
-0.602282	-10.1285
-0.552293	2.21987
-0.612342	-10.1558
-0.562335	2.19505
-0.622368	-10.0868
-0.572269	2.21796
-0.632356	-9.94538
-0.582325	2.28172
-0.642374	-9.72487
-0.592287	2.37164
-0.652347	-9.44022
-0.602301	2.47856
-0.66235	-9.12426
-0.612426	2.56638
-0.672361	-8.75426
-0.622357	2.6752
-0.682356	-8.38217
-0.632348	2.76359
-0.692382	-8.01886
-0.642332	2.80788
-0.702324	-7.67369
-0.652412	2.81666
-0.712319	-7.36613
-0.662373	2.79185
-0.722368	-7.09216
-0.672341	2.76512
-0.732413	-6.84512
-0.682345	2.71052
-0.742313	-6.64218
-0.69234	2.64694
-0.752331	-6.47627
-0.702354	2.58279
-0.762327	-6.34321
-0.712338	2.52247
-0.772303	-6.23019
-0.722292	2.46844
-0.782302	-6.15859
-0.732329	2.41403
-0.792324	-6.09979
-0.742298	2.36706
-0.802328	-6.06352
-0.752316	2.32334
-0.812353	-6.03259
-0.762308	2.2865
-0.822322	-6.00472
-0.772334	2.2634
-0.832268	-5.99307
-0.782356	2.22464
-0.842336	-5.98047
-0.792321	2.20708
-0.852293	-5.96673
-0.802266	2.17958
-0.862308	-5.94744
-0.812331	2.16469
-0.872315	-5.91117
-0.822341	2.14369
-0.882241	-5.89819
-0.832314	2.14159
-0.892351	-5.86554
-0.842366	2.13586
-0.902297	-5.83709
-0.852297	2.1309
-0.912308	-5.7991
-0.862254	2.12422
-0.922295	-5.77027
-0.872284	2.12899
-0.932291	-5.73782
-0.882276	2.13873
-0.942313	-5.70861
-0.892301	2.15114
-0.952388	-5.69066
-0.90227	2.17137
-0.962365	-5.66985
-0.912296	2.18531
-0.972402	-5.65076
-0.922284	2.20841
-0.982352	-5.64255
-0.932222	2.23419
-0.992385	-5.63549
-0.942244	2.27084
-1.00233	-5.63873
-0.95235	2.28153
-1.01241	-5.64293
-0.962388	2.30807
-1.0223	-5.6374
-0.972368	2.3327
-1.0324	-5.65
-0.982348	2.3537
-1.04237	-5.64809
-0.992363	2.37966
-1.05233	-5.66145
-1.00235	2.39131
-1.0624	-5.66985
-1.01236	2.40944
-1.07236	-5.68379
-1.02237	2.4209
-1.08237	-5.70575
-1.03229	2.43197
-1.09238	-5.73496
-1.04244	2.43885
-1.10232	-5.77314
-1.05232	2.46061
-1.11232	-5.81361
-1.06231	2.45756
-1.12235	-5.8726
-1.07234	2.46901