File: VFSWV_data_prep/Example_data/CoPc_VFSWV_txt_data/CoPc_CNT_VFSWV_scans_59_58_C02.txt
Ewe/V	<I>/mA
-0.122565	0.0278436
-0.0726184	0.0326749
-0.132553	0.0258919
-0.0825833	0.0298112
-0.142563	0.0232191
-0.0926092	0.029216
-0.152524	0.0221522
-0.102574	0.0300134
-0.162543	0.0232977
-0.112558	0.032091
-0.172523	0.0214334
-0.122565	0.031361
-0.182537	0.0236907
-0.132545	0.02907
-0.192537	0.0234886
-0.142533	0.0333937
-0.202555	0.0208046
-0.152544	0.0322819
-0.212527	0.0223992
-0.162531	0.027655
-0.222538	0.0242522
-0.172553	0.0320348
-0.232526	0.0220736
-0.182549	0.0333263
-0.242506	0.0221971
-0.192567	0.030193
-0.252505	0.0220287
-0.202486	0.0326525
-0.262531	0.0212313
-0.21252	0.0289016
-0.272507	0.0204115
-0.222565	0.0268801
-0.282472	0.0189853
-0.232553	0.0236795
-0.292506	0.0183227
-0.24254	0.0262288
-0.302467	0.0157846
-0.252517	0.0285197
-0.312501	0.0177499
-0.262474	0.0269812
-0.322507	0.0142012
-0.272523	0.0247127
-0.332514	0.0151333
-0.282526	0.0259929
-0.342475	0.013853
-0.292514	0.0254314
-0.352467	0.0120674
-0.302505	0.0276325
-0.362504	0.0167504
-0.312493	0.0258469
-0.372504	0.0146055
-0.322519	0.0260154
-0.382434	0.0115845
-0.332503	0.0262849
-0.392475	0.0114161
-0.342479	0.0250159
-0.402455	0.011753
-0.352494	0.0273293
-0.412508	0.00894541
-0.362466	0.0258469
-0.42245	0.0066769
-0.3725	0.0231068
-0.432472	0.00872081
-0.382495	0.021119
-0.442494	0.00883311
-0.39246	0.0340562
-0.452566	0.00663198
-0.402425	0.024241
-0.462558	0.00830529
-0.412447	0.0292834
-0.472553	0.00612662
-0.422435	0.031361
-0.482537	0.00355489
-0.432445	0.0321808
-0.492548	0.0034089
-0.442437	0.0288454
-0.502555	0.004633
-0.452516	0.0283064
-0.512519	-0.00155487
-0.462523	0.029654
-0.522507	-0.00930374
-0.472477	0.0312936
-0.532529	-0.00456458
-0.482526	0.0338541
-0.542513	-0.00674324
-0.492521	0.0347525
-0.552505	-0.0073946
-0.502497	0.0356509
-0.562477	-0.00754059
-0.512531	0.0359991
-0.572549	-0.0152109
-0.522545	0.0337418
-0.582487	-0.012145
-0.532545	0.0371109
-0.592513	-0.0167045
-0.542509	0.0386494
-0.602516	-0.0178949
-0.552562	0.0400981
-0.612531	-0.0185912
-0.562496	0.0341236
-0.62245	-0.0203206
-0.572542	0.0318102
-0.63248	-0.0205789
-0.582491	0.0362686
-0.642486	-0.024487
-0.592498	0.0356846
-0.652486	-0.0271149
-0.60252	0.0343707
-0.662416	-0.0235662
-0.6125	0.0321808
-0.672538	-0.0256999
-0.622496	0.033652
-0.682438	-0.0224094
-0.632525	0.0350782
-0.692483	-0.022634
-0.642464	0.0323156
-0.702478	-0.0254865
-0.652455	0.02907
-0.712454	-0.0297428
-0.66245	0.0300807
-0.722461	-0.0261828
-0.672515	0.0367403
-0.732384	-0.0274069
-0.682502	0.0293732
-0.742441	-0.0214212
-0.692521	0.0322033
-0.752394	-0.0274855
-0.702474	0.0360103
-0.762424	-0.0275866
-0.712496	0.0362461
-0.772461	-0.0243747
-0.722457	0.0356397
-0.782411	-0.0198265
-0.732418	0.0314508
-0.792414	-0.0178163
-0.742448	0.0361451
-0.802371	-0.021365
-0.752463	0.030047
-0.812439	-0.021803
-0.762424	0.035359
-0.822419	-0.0217693
-0.772473	0.0359654
-0.832456	-0.0224544
-0.782472	0.0268689
-0.842456	-0.020096
-0.792448	0.0293283
-0.852524	-0.0265085
-0.80244	0.0303727
-0.862569	-0.020534
-0.812416	0.0299123
-0.87253	-0.016536
-0.822446	0.0259031
-0.882518	-0.0191864
-0.832392	0.0322482
-0.892543	-0.0134589
-0.842425	0.0242298
-0.902531	-0.0163676
-0.852527	0.0232977
-0.912504	-0.0131669
-0.862511	0.0237132
-0.922507	-0.0105503
-0.872541	0.0280593
-0.932487	-0.00984279
-0.882514	0.0305861
-0.94252	-0.0120552
-0.892578	0.0281267
-0.952504	-0.013122
-0.902485	0.0216468
-0.962462	-0.011123
-0.912481	0.0215233
-0.972449	-0.0188495
-0.922511	0.0196254
-0.982456	-0.014975
-0.93246	0.0240501
-0.99249	-0.0142675
-0.942509	0.0182553
-1.00244	-0.0153344
-0.952485	0.018727
-1.01253	-0.016244
-0.962504	0.0193222
-1.02249	-0.0172997
-0.972488	0.020434
-1.03246	-0.0155141
-0.98243	0.0181879
-1.0425	-0.0187708
-0.992547	0.0190077
-1.05246	-0.0190965
-1.00251	0.0189853
-1.06246	-0.0173334
-1.01247	0.0193222
-1.07248	-0.0217918
-1.02255	0.019412
-1.08248	-0.0187708
-1.03248	0.0186259
-1.09243	-0.0203206
-1.0425	0.0232078
-1.10245	-0.0150649
-1.05249	0.0194682
-1.11242	-0.0259357
-1.06247	0.0237132
-1.12246	-0.0208597
-1.0725	0.0253303