File: VFSWV_data_prep/Example_data/CoPc_VFSWV_txt_data/CoPc_CNT_VFSWV_scans_18_17_C02.txt
Ewe/V	<I>/mA
-0.122419	-0.0183195
-0.072392	0.146666
-0.132395	-0.0915953
-0.0824142	0.133811
-0.142417	-0.110432
-0.0924209	0.123247
-0.15239	-0.114123
-0.102405	0.118029
-0.162381	-0.116032
-0.112358	0.11841
-0.17235	-0.124433
-0.12238	0.121847
-0.182387	-0.126851
-0.132372	0.129865
-0.192398	-0.129905
-0.142341	0.123883
-0.202317	-0.136015
-0.152367	0.133684
-0.212339	-0.135378
-0.162351	0.133938
-0.222377	-0.151033
-0.172411	0.134829
-0.23238	-0.152561
-0.182399	0.137247
-0.242333	-0.154215
-0.192345	0.131902
-0.252386	-0.162997
-0.202378	0.133684
-0.262396	-0.162488
-0.212366	0.135211
-0.272361	-0.177888
-0.222399	0.140047
-0.282376	-0.180943
-0.23236	0.142847
-0.29236	-0.194562
-0.242402	0.144884
-0.302309	-0.200544
-0.252386	0.14972
-0.312339	-0.219635
-0.262373	0.149848
-0.32238	-0.230326
-0.272361	0.160412
-0.332353	-0.245472
-0.282326	0.167921
-0.34231	-0.264564
-0.292314	0.177848
-0.35237	-0.289637
-0.302366	0.174794
-0.362328	-0.321329
-0.312309	0.192612
-0.37235	-0.368166
-0.322346	0.207504
-0.382307	-0.43155
-0.33236	0.233213
-0.392344	-0.508425
-0.34236	0.248868
-0.402294	-0.6077
-0.352282	0.300415
-0.412312	-0.728612
-0.362373	0.353362
-0.422361	-0.898781
-0.372346	0.440928
-0.432433	-1.10191
-0.382356	0.555731
-0.442413	-1.34921
-0.392299	0.711008
-0.452424	-1.63049
-0.402309	0.913632
-0.462427	-1.95492
-0.412297	1.15737
-0.47235	-2.31015
-0.422319	1.42885
-0.482417	-2.66868
-0.432395	1.72553
-0.492405	-3.03078
-0.442398	2.00668
-0.502382	-3.38385
-0.452397	2.26403
-0.512366	-3.72507
-0.462427	2.49376
-0.522384	-4.02952
-0.472403	2.68722
-0.532364	-4.31042
-0.482387	2.83499
-0.542386	-4.54715
-0.492401	2.9461
-0.552393	-4.73272
-0.50242	3.01738
-0.562354	-4.86954
-0.512343	3.06269
-0.572403	-4.96398
-0.522323	3.07834
-0.582364	-4.98714
-0.53244	3.07211
-0.59234	-4.94794
-0.542382	3.03991
-0.602339	-4.86611
-0.552374	2.9918
-0.612342	-4.70701
-0.562392	2.92129
-0.622304	-4.49649
-0.57233	2.81501
-0.632352	-4.23049
-0.582345	2.6871
-0.64231	-3.92388
-0.592371	2.53717
-0.652343	-3.59334
-0.602378	2.35567
-0.662342	-3.26153
-0.612385	2.17621
-0.672349	-2.938
-0.62241	1.96837
-0.682333	-2.64208
-0.632364	1.773
-0.692344	-2.37417
-0.642336	1.57929
-0.702339	-2.16518
-0.65237	1.40326
-0.712327	-1.98126
-0.66235	1.25002
-0.722342	-1.84661
-0.672346	1.12402
-0.732303	-1.74415
-0.682322	1.01049
-0.742294	-1.66333
-0.692394	0.919741
-0.752297	-1.60109
-0.702351	0.843757
-0.762281	-1.56609
-0.712365	0.783683
-0.772307	-1.53414
-0.722353	0.750973
-0.782303	-1.50983
-0.732284	0.718645
-0.792309	-1.49112
-0.74234	0.688607
-0.802286	-1.49023
-0.752332	0.67448
-0.812289	-1.47789
-0.762308	0.650806
-0.822311	-1.47101
-0.772288	0.632097
-0.832326	-1.46032
-0.782268	0.624715
-0.842397	-1.45001
-0.792313	0.603969
-0.852442	-1.43156
-0.802271	0.599896
-0.862434	-1.41005
-0.812312	0.575204
-0.872399	-1.38358
-0.822349	0.563622
-0.882409	-1.34857
-0.832318	0.544022
-0.892405	-1.3221
-0.842416	0.523785
-0.902404	-1.29003
-0.852446	0.509912
-0.912419	-1.25719
-0.862388	0.485984
-0.922399	-1.22652
-0.872433	0.478093
-0.93236	-1.19775
-0.882398	0.465365
-0.942405	-1.17281
-0.892393	0.445765
-0.9524	-1.14773
-0.902332	0.441946
-0.962392	-1.13284
-0.912369	0.432146
-0.972395	-1.12266
-0.92241	0.438764
-0.982398	-1.11184
-0.932333	0.429219
-0.992378	-1.11477
-0.942428	0.441564
-1.00238	-1.11019
-0.952389	0.441564
-1.01239	-1.1149
-0.962392	0.454419
-1.02237	-1.13068
-0.972387	0.463583
-1.03237	-1.13335
-0.982356	0.476693
-1.04237	-1.13831
-0.992347	0.484711
-1.0524	-1.14786
-1.00237	0.490057
-1.06238	-1.15982
-1.01238	0.495275
-1.07236	-1.1835
-1.02232	0.507621
-1.08233	-1.20157
-1.03233	0.514876
-1.09239	-1.22906
-1.04237	0.526967
-1.10238	-1.25274
-1.05234	0.542367
-1.11233	-1.28532
-1.06233	0.561331
-1.12228	-1.32236
-1.07239	0.584114