File: VFSWV_data_prep/Example_data/CoPc_VFSWV_txt_data/CoPc_CNT_VFSWV_scans_41_40_C02.txt
Ewe/V	<I>/mA
-0.1225	0.0203216
-0.0723814	0.050954
-0.132438	0.0197289
-0.0824074	0.0439114
-0.142479	0.0161228
-0.092399	0.0445478
-0.152475	0.00844379
-0.102345	0.0426811
-0.16247	0.0146379
-0.11234	0.0448023
-0.172442	0.0118803
-0.122462	0.0414932
-0.182453	0.0126015
-0.132472	0.0384385
-0.192452	0.0103529
-0.142468	0.0423841
-0.202421	0.0139591
-0.152448	0.0400083
-0.212439	0.010056
-0.162462	0.045863
-0.222446	0.00695891
-0.172443	0.0430629
-0.232426	0.0092923
-0.182491	0.044972
-0.242399	0.00526189
-0.192376	0.0466266
-0.252406	0.00471036
-0.202459	0.0425114
-0.262435	0.00517704
-0.212455	0.0342809
-0.272416	-4.12804e-05
-0.222488	0.0389901
-0.282407	-0.000423109
-0.232426	0.0434872
-0.292406	-0.00381714
-0.242448	0.0419598
-0.302459	-0.00373229
-0.252383	0.0436993
-0.312428	-0.00271408
-0.262439	0.0410265
-0.322397	-0.00750815
-0.272454	0.0437417
-0.332396	-0.00576871
-0.282461	0.0431902
-0.342391	-0.0052596
-0.292403	0.0408144
-0.352406	-0.0101809
-0.302394	0.0381416
-0.362412	-0.0120901
-0.312401	0.0428084
-0.372381	-0.0125992
-0.322419	0.0403053
-0.382422	-0.0182418
-0.332453	0.0377173
-0.392437	-0.0209146
-0.342399	0.04616
-0.402409	-0.0233328
-0.352417	0.0456933
-0.412454	-0.0219752
-0.362435	0.0459903
-0.42232	-0.0319876
-0.3724	0.0483661
-0.432403	-0.0388181
-0.382422	0.0536692
-0.442376	-0.0508245
-0.392441	0.0541359
-0.452413	-0.0696613
-0.402425	0.05753
-0.462401	-0.0849345
-0.412386	0.0581663
-0.472389	-0.119087
-0.422373	0.0634695
-0.482323	-0.159349
-0.432392	0.0795063
-0.492399	-0.214162
-0.442395	0.0893914
-0.502383	-0.274152
-0.452383	0.116289
-0.512389	-0.342117
-0.462386	0.155999
-0.522358	-0.422386
-0.472396	0.200164
-0.532457	-0.490309
-0.482369	0.258669
-0.542418	-0.555559
-0.492364	0.329307
-0.552455	-0.602948
-0.502363	0.394048
-0.562416	-0.624373
-0.512382	0.441734
-0.572442	-0.635828
-0.522408	0.482929
-0.582449	-0.611221
-0.532437	0.499008
-0.592444	-0.57079
-0.542421	0.505542
-0.602455	-0.515085
-0.552505	0.481063
-0.612446	-0.456793
-0.562416	0.446062
-0.622423	-0.393155
-0.572442	0.401939
-0.632441	-0.342711
-0.582464	0.351708
-0.642395	-0.312335
-0.592463	0.301179
-0.652401	-0.269358
-0.602402	0.25905
-0.662336	-0.248866
-0.612447	0.211873
-0.672427	-0.241569
-0.622434	0.185655
-0.682422	-0.231938
-0.632399	0.160963
-0.692379	-0.22269
-0.642395	0.14866
-0.702451	-0.215732
-0.652421	0.132877
-0.712424	-0.208859
-0.662401	0.126259
-0.722404	-0.211871
-0.672415	0.114465
-0.732437	-0.213823
-0.68238	0.114804
-0.742364	-0.208435
-0.69241	0.103901
-0.75242	-0.206101
-0.702394	0.109246
-0.762412	-0.20992
-0.712443	0.0999978
-0.772407	-0.209877
-0.722388	0.097325
-0.782353	-0.21132
-0.73243	0.0980462
-0.792368	-0.20695
-0.742356	0.0941006
-0.802432	-0.206653
-0.752375	0.0943552
-0.812374	-0.20538
-0.762351	0.10004
-0.822362	-0.213908
-0.772346	0.0902399
-0.832357	-0.208817
-0.782311	0.0942703
-0.842383	-0.199738
-0.792364	0.0937612
-0.852413	-0.197447
-0.802386	0.0860822
-0.862362	-0.195368
-0.812358	0.083367
-0.872358	-0.188962
-0.822373	0.0702576
-0.882353	-0.186331
-0.832368	0.0718273
-0.892341	-0.176446
-0.842398	0.0727607
-0.902325	-0.167961
-0.852344	0.0695788
-0.91237	-0.167919
-0.862419	0.0656756
-0.922274	-0.158882
-0.872388	0.0608391
-0.932445	-0.1571
-0.882349	0.0577421
-0.942471	-0.144288
-0.892341	0.0557905
-0.952443	-0.137924
-0.902367	0.049851
-0.962439	-0.130499
-0.912385	0.0590148
-0.972464	-0.12876
-0.922361	0.058633
-0.982452	-0.125451
-0.93241	0.0615604
-0.99241	-0.123754
-0.942452	0.0610088
-1.0024	-0.120996
-0.952466	0.0623665
-1.01242	-0.126851
-0.962454	0.0626634
-1.02242	-0.122354
-0.972495	0.0570209
-1.0324	-0.126426
-0.982452	0.0553663
-1.04246	-0.134699
-0.992505	0.0574875
-1.05237	-0.127063
-1.00249	0.0548996
-1.06239	-0.13593
-1.01245	0.0574875
-1.07242	-0.133893
-1.0224	0.0665241
-1.08241	-0.136821
-1.03245	0.0680939
-1.09244	-0.148106
-1.04244	0.0598209
-1.10245	-0.143354
-1.05242	0.0624937
-1.1124	-0.155955
-1.06238	0.0667363
-1.1224	-0.159815
-1.0724	0.074288