File: VFSWV_data_prep/Example_data/CoPc_VFSWV_txt_data/CoPc_CNT_VFSWV_scans_09_8_C02.txt
Ewe/V	<I>/mA
-0.122323	-0.31542
-0.072365	0.743145
-0.132334	-0.833806
-0.082391	0.704772
-0.142314	-0.856716
-0.0923139	0.700953
-0.15234	-0.873516
-0.102332	0.695608
-0.162316	-0.88688
-0.112293	0.695799
-0.172311	-0.899862
-0.122357	0.696562
-0.182311	-0.922772
-0.132341	0.719281
-0.192337	-0.934418
-0.142363	0.724245
-0.202275	-0.956564
-0.152286	0.737991
-0.212297	-0.975082
-0.162335	0.741618
-0.222292	-0.979665
-0.172327	0.744291
-0.232326	-0.992838
-0.182299	0.751546
-0.242253	-1.00716
-0.192283	0.764146
-0.252263	-1.01441
-0.202313	0.771973
-0.262282	-1.03522
-0.212278	0.767582
-0.27238	-1.05469
-0.222288	0.782665
-0.282398	-1.08658
-0.232253	0.783428
-0.292333	-1.10777
-0.242302	0.796029
-0.302347	-1.12934
-0.25229	0.800038
-0.312396	-1.16886
-0.262247	0.823902
-0.32241	-1.2101
-0.272369	0.836693
-0.332383	-1.26298
-0.282368	0.860558
-0.342394	-1.3298
-0.292398	0.88614
-0.352347	-1.40598
-0.302362	0.94036
-0.362381	-1.50754
-0.312308	0.991716
-0.372369	-1.62515
-0.322372	1.05052
-0.382356	-1.75669
-0.33233	1.13796
-0.392348	-1.94015
-0.342329	1.25021
-0.402332	-2.1536
-0.352378	1.38595
-0.412342	-2.41076
-0.362415	1.55148
-0.422307	-2.69331
-0.372361	1.73781
-0.432318	-3.01615
-0.382356	1.96824
-0.442329	-3.36418
-0.392321	2.21395
-0.452278	-3.74467
-0.402316	2.4587
-0.462335	-4.14846
-0.41235	2.69792
-0.472281	-4.54422
-0.422288	2.91709
-0.482349	-4.93636
-0.432314	3.09425
-0.492275	-5.31494
-0.44229	3.22923
-0.502313	-5.67921
-0.452339	3.3287
-0.512277	-6.02495
-0.462262	3.39494
-0.522231	-6.33939
-0.472326	3.41537
-0.532299	-6.63512
-0.482322	3.40392
-0.542271	-6.89495
-0.492325	3.38158
-0.552278	-7.11374
-0.502324	3.3392
-0.562209	-7.30503
-0.5123	3.3014
-0.572242	-7.457
-0.522292	3.25119
-0.582276	-7.54177
-0.532264	3.21071
-0.592298	-7.58549
-0.542268	3.16928
-0.602282	-7.56143
-0.552263	3.15286
-0.612373	-7.49996
-0.562235	3.13988
-0.622372	-7.34971
-0.572273	3.12747
-0.632333	-7.13932
-0.58228	3.12365
-0.642355	-6.87013
-0.59229	3.09387
-0.652366	-6.56772
-0.602251	3.06485
-0.662346	-6.23572
-0.612369	2.98505
-0.672334	-5.87623
-0.622311	2.90028
-0.682314	-5.52247
-0.632348	2.80082
-0.692328	-5.19238
-0.64234	2.65821
-0.702366	-4.87374
-0.652331	2.52667
-0.712346	-4.60188
-0.662323	2.38023
-0.722296	-4.35999
-0.672307	2.24297
-0.732394	-4.15113
-0.682348	2.11429
-0.742347	-3.99439
-0.692382	2.00394
-0.752282	-3.85273
-0.702309	1.90257
-0.762293	-3.75327
-0.712315	1.81475
-0.772254	-3.66525
-0.722349	1.74124
-0.782306	-3.61485
-0.732321	1.68244
-0.792271	-3.57094
-0.742344	1.63281
-0.802282	-3.54097
-0.752263	1.58832
-0.812266	-3.51596
-0.762293	1.56083
-0.822284	-3.50832
-0.772334	1.53048
-0.83231	-3.49171
-0.782276	1.50814
-0.842317	-3.46613
-0.792283	1.48504
-0.852312	-3.45086
-0.802316	1.45736
-0.862273	-3.42184
-0.812331	1.44094
-0.872288	-3.39607
-0.822265	1.42108
-0.882268	-3.36724
-0.832321	1.3997
-0.892279	-3.33631
-0.842294	1.37889
-0.902331	-3.29106
-0.852354	1.37049
-0.912277	-3.24887
-0.862315	1.35846
-0.922238	-3.21012
-0.872322	1.33842
-0.932249	-3.16869
-0.882291	1.33956
-0.942263	-3.13948
-0.892309	1.33078
-0.952366	-3.11218
-0.902297	1.33842
-0.962334	-3.08488
-0.912246	1.3325
-0.972368	-3.07514
-0.922276	1.34815
-0.982352	-3.07686
-0.932226	1.36228
-0.992393	-3.07247
-0.942244	1.38233
-1.00238	-3.08087
-0.952358	1.39264
-1.01235	-3.08106
-0.962357	1.41936
-1.02231	-3.08545
-0.972307	1.43235
-1.03237	-3.09958
-0.982371	1.46079
-1.04233	-3.11141
-0.992351	1.46862
-1.05234	-3.12707
-1.00232	1.48637
-1.06231	-3.15208
-1.01234	1.50604
-1.07235	-3.16773
-1.02231	1.51482
-1.0823	-3.19961
-1.03236	1.52589
-1.09234	-3.23379
-1.04229	1.54327
-1.10236	-3.26968
-1.05227	1.55873
-1.1123	-3.32772
-1.0623	1.58317
-1.12228	-3.3701
-1.0723	1.6057