File: VFSWV_data_prep/Example_data/CoPc_VFSWV_txt_data/CoPc_CNT_VFSWV_scans_67_66_C02.txt
Ewe/V	<I>/mA
-0.12271	0.0314328
-0.0725881	0.0303552
-0.132713	0.0317333
-0.0825835	0.0338274
-0.142648	0.0291918
-0.0927087	0.0310771
-0.152654	0.0245621
-0.102677	0.0299912
-0.162684	0.0236434
-0.112616	0.0280582
-0.172607	0.0236135
-0.12263	0.0290963
-0.182629	0.0260059
-0.132633	0.0334217
-0.192613	0.0215075
-0.142655	0.0280403
-0.202593	0.0210899
-0.152628	0.0271335
-0.212585	0.0219311
-0.162604	0.0253258
-0.222615	0.0226112
-0.172607	0.0261073
-0.232614	0.023184
-0.182637	0.0260775
-0.242647	0.0237806
-0.192621	0.0286131
-0.252605	0.0227186
-0.202601	0.0264832
-0.262581	0.0225754
-0.212581	0.0250454
-0.272561	0.0182739
-0.222599	0.0305401
-0.282606	0.0255943
-0.232599	0.0301165
-0.292625	0.0237567
-0.242575	0.0296452
-0.302593	0.0255525
-0.252609	0.0306416
-0.312596	0.0212211
-0.2626	0.0261849
-0.322569	0.0227902
-0.272592	0.0291858
-0.33256	0.0215672
-0.282602	0.0256122
-0.34259	0.0188049
-0.29259	0.0211018
-0.352563	0.0260178
-0.302593	0.0241147
-0.362535	0.0186498
-0.312592	0.023345
-0.37255	0.0164184
-0.322641	0.0218237
-0.382553	0.019312
-0.332572	0.0222831
-0.392537	0.0173014
-0.342544	0.0248425
-0.402536	0.0141096
-0.352528	0.0213226
-0.412566	0.0127732
-0.362543	0.0227365
-0.422523	0.00870431
-0.372561	0.0216447
-0.43253	0.0103569
-0.382579	0.0181963
-0.442517	0.0168182
-0.392529	0.020887
-0.452517	0.00831652
-0.402547	0.0173193
-0.462466	0.00700398
-0.412512	0.0179458
-0.472549	0.00634772
-0.422542	0.0202725
-0.482526	0.0058406
-0.432526	0.0194373
-0.492533	0.00573321
-0.442517	0.0202487
-0.502593	0.00685483
-0.452505	0.02001
-0.512611	0.00965888
-0.462527	0.0182858
-0.522607	0.00276807
-0.47253	0.0201651
-0.532568	0.000751544
-0.482503	0.0195208
-0.542624	0.00100212
-0.49262	0.0200816
-0.552581	5.78508e-06
-0.502555	0.020004
-0.562569	-0.000811567
-0.512619	0.0203859
-0.572572	-0.00148573
-0.522649	0.0234882
-0.582602	0.00167032
-0.532572	0.0238641
-0.59259	-0.00143204
-0.54259	0.0215075
-0.60252	-0.00710577
-0.55257	0.0241624
-0.612565	-0.00437928
-0.562577	0.0242698
-0.622568	-0.0101723
-0.57261	0.0210899
-0.632575	-0.00320396
-0.582552	0.0250752
-0.642548	-0.00427189
-0.592571	0.026346
-0.652509	-0.00284003
-0.602562	0.0259105
-0.662562	-0.00720123
-0.612546	0.0258568
-0.672607	-0.00201671
-0.62253	0.028273
-0.68256	-0.00127692
-0.632594	0.0270619
-0.692529	-0.00547107
-0.642552	0.0252602
-0.702558	-0.00369914
-0.652589	0.0276585
-0.712569	-0.00380057
-0.6625	0.0233391
-0.722458	-0.00619893
-0.672545	0.0242519
-0.732468	-0.00461792
-0.682529	0.0241266
-0.74246	-0.00326959
-0.692582	0.0260536
-0.752474	-0.00448666
-0.702497	0.0238104
-0.762481	-0.00482076
-0.7125	0.0220265
-0.772534	-0.00449263
-0.722484	0.0235837
-0.782514	-0.00208831
-0.732514	0.0239894
-0.792479	-0.00388409
-0.742448	0.0243056
-0.802467	-0.0044449
-0.752493	0.0235002
-0.812458	-0.00581113
-0.762493	0.0186557
-0.822492	-0.00664638
-0.772511	0.0194373
-0.832518	-0.00792909
-0.782487	0.0212152
-0.842475	-0.00665235
-0.792437	0.0167943
-0.852482	-0.0064316
-0.802474	0.0209646
-0.862493	-0.00105618
-0.812489	0.0200876
-0.87245	-0.00542334
-0.822488	0.0254809
-0.88248	-0.00399148
-0.832518	0.0195089
-0.892467	-0.00470741
-0.84249	0.0216924
-0.902532	-0.00216586
-0.852497	0.018077
-0.912603	-0.0050952
-0.862523	0.0180412
-0.922576	-0.00233291
-0.872507	0.0171702
-0.932586	-0.00181983
-0.882434	0.0197236
-0.942567	0.000262326
-0.892471	0.0162812
-0.952539	-0.000918956
-0.902589	0.0192404
-0.962527	0.00400902
-0.912645	0.0186676
-0.972557	0.00102002
-0.922572	0.0190554
-0.982533	0.000471138
-0.932575	0.0236612
-0.992536	0.00593009
-0.942574	0.0203322
-1.00254	0.00424766
-0.952535	0.0235658
-1.01256	0.00471301
-0.962554	0.0178205
-1.02249	-0.00113373
-0.972583	0.0252303
-1.03252	-0.00164085
-0.982521	0.0198549
-1.04253	0.00391953
-0.992559	0.0216745
-1.05255	-0.00326362
-1.00254	0.0173074
-1.06252	-0.00501168
-1.01258	0.0154519
-1.07247	0.00110951
-1.02251	0.0170986
-1.08252	0.000656087
-1.03251	0.0187512
-1.09256	-0.00112777
-1.04253	0.0231243
-1.10253	-0.00289372
-1.05249	0.0190196
-1.11253	-0.00720123
-1.06253	0.0162335
-1.12249	-0.00541737
-1.0725	0.0183992