File: VFSWV_data_prep/Example_data/CoPc_VFSWV_txt_data/CoPc_CNT_VFSWV_scans_38_37_C02.txt
Ewe/V	<I>/mA
-0.122511	0.00306294
-0.0723509	0.033899
-0.132426	-0.014975
-0.0823235	0.0325354
-0.142456	-0.0105567
-0.0923493	0.0254443
-0.152417	-0.0168842
-0.102356	0.0256624
-0.16242	-0.0141023
-0.112363	0.0280625
-0.172454	-0.0159023
-0.122454	0.0253897
-0.182442	-0.0194479
-0.13248	0.0195532
-0.192464	-0.0228298
-0.142498	0.0182986
-0.20244	-0.0244662
-0.152421	0.019935
-0.212405	-0.0211934
-0.162409	0.0251715
-0.222416	-0.0282845
-0.172442	0.0194986
-0.232438	-0.0354847
-0.182465	0.0232078
-0.24246	-0.034121
-0.192464	0.0202623
-0.252436	-0.0316118
-0.202421	0.0237533
-0.262409	-0.0363029
-0.212455	0.0264806
-0.272419	-0.0346665
-0.22245	0.0199896
-0.282373	-0.0335755
-0.232426	0.0188441
-0.292364	-0.0384847
-0.242429	0.0232078
-0.302406	-0.037612
-0.252421	0.0238078
-0.312355	-0.0414848
-0.262382	0.0151349
-0.322381	-0.043994
-0.272427	0.0302444
-0.332342	-0.0474304
-0.282377	0.0223351
-0.342399	-0.0506487
-0.292425	0.0249533
-0.352318	-0.0518487
-0.302406	0.0220078
-0.362367	-0.062049
-0.312412	0.0226078
-0.372358	-0.0589398
-0.322423	0.0308444
-0.382373	-0.0601944
-0.332369	0.0287716
-0.39236	-0.0633036
-0.342338	0.0331354
-0.402421	-0.0673946
-0.35236	0.0290443
-0.412363	-0.0851769
-0.362412	0.0297535
-0.422343	-0.0867042
-0.372381	0.0331899
-0.432361	-0.110923
-0.382361	0.0374446
-0.442307	-0.139669
-0.392345	0.0418629
-0.452341	-0.180798
-0.402379	0.0536996
-0.462409	-0.236981
-0.412382	0.0657544
-0.472354	-0.303092
-0.422377	0.0793366
-0.482373	-0.397349
-0.432342	0.121229
-0.492326	-0.513425
-0.442422	0.177357
-0.502333	-0.63501
-0.45231	0.251487
-0.51237	-0.775741
-0.462317	0.351962
-0.522312	-0.915654
-0.472362	0.47862
-0.532472	-1.04957
-0.482342	0.60026
-0.542402	-1.15779
-0.492345	0.727572
-0.552459	-1.24894
-0.502371	0.83083
-0.562427	-1.30768
-0.512309	0.915759
-0.572415	-1.32601
-0.522285	0.968124
-0.582437	-1.29994
-0.532407	0.982034
-0.592425	-1.22886
-0.542418	0.964415
-0.602375	-1.13428
-0.55244	0.930378
-0.612405	-1.01427
-0.562458	0.860885
-0.622381	-0.875671
-0.572457	0.777974
-0.632426	-0.758231
-0.582392	0.68148
-0.642387	-0.645865
-0.592406	0.581441
-0.652398	-0.561426
-0.602367	0.490729
-0.662385	-0.500443
-0.612431	0.404218
-0.672381	-0.446005
-0.622392	0.335162
-0.682372	-0.412077
-0.632395	0.27996
-0.692436	-0.38453
-0.642398	0.232613
-0.702363	-0.373021
-0.652367	0.199558
-0.712443	-0.35873
-0.66234	0.175557
-0.72235	-0.349402
-0.672369	0.157721
-0.732361	-0.350057
-0.682342	0.145611
-0.742341	-0.341875
-0.692387	0.13252
-0.752333	-0.347493
-0.702367	0.133065
-0.762378	-0.339966
-0.71237	0.120901
-0.772346	-0.346511
-0.722381	0.112283
-0.782326	-0.346838
-0.732346	0.113974
-0.79231	-0.338656
-0.742345	0.115119
-0.802355	-0.348257
-0.752405	0.112228
-0.812317	-0.342693
-0.762347	0.0990826
-0.822358	-0.347002
-0.7724	0.0969007
-0.832319	-0.34122
-0.782334	0.101537
-0.842326	-0.337402
-0.792295	0.103228
-0.852374	-0.332438
-0.802329	0.0951007
-0.862362	-0.322783
-0.812313	0.0868095
-0.872365	-0.312583
-0.822377	0.0910642
-0.882307	-0.295128
-0.832338	0.0809185
-0.892383	-0.295564
-0.842349	0.0789548
-0.90229	-0.283619
-0.852367	0.0776457
-0.91232	-0.2732
-0.862351	0.0660272
-0.922308	-0.261582
-0.872384	0.062918
-0.932468	-0.2558
-0.882376	0.0562633
-0.942387	-0.249527
-0.892314	0.0568087
-0.952382	-0.236381
-0.90234	0.0481903
-0.962393	-0.226781
-0.912324	0.0503722
-0.972415	-0.230544
-0.922316	0.0537541
-0.982422	-0.230926
-0.932426	0.0514086
-0.99239	-0.225744
-0.942452	0.0481358
-1.0024	-0.21838
-0.952409	0.0442629
-1.0124	-0.223072
-0.962461	0.0497176
-1.02238	-0.222908
-0.972388	0.048954
-1.03243	-0.226835
-0.982399	0.0552269
-1.04236	-0.226126
-0.992444	0.0535359
-1.05236	-0.231854
-1.00244	0.0506449
-1.06243	-0.239272
-1.01242	0.0566996
-1.07241	-0.239763
-1.02238	0.0562633
-1.08238	-0.242545
-1.03236	0.0598088
-1.09243	-0.247727
-1.04245	0.0593179
-1.1024	-0.253727
-1.05239	0.0587179
-1.1124	-0.264364
-1.06243	0.0660272
-1.12242	-0.274018
-1.07238	0.0650453