File: VFSWV_data_prep/Example_data/CoPc_VFSWV_txt_data/CoPc_CNT_VFSWV_scans_08_7_C02.txt
Ewe/V	<I>/mA
-0.122395	-0.431649
-0.0723803	0.974915
-0.132337	-1.1175
-0.0823375	0.909432
-0.142341	-1.13717
-0.0923711	0.902941
-0.152324	-1.1618
-0.10237	0.912104
-0.162366	-1.18184
-0.11235	0.91115
-0.172292	-1.19845
-0.122373	0.924323
-0.182345	-1.22003
-0.132357	0.931959
-0.192367	-1.22976
-0.142341	0.939596
-0.202328	-1.25363
-0.152332	0.958306
-0.212316	-1.27596
-0.162324	0.961933
-0.222288	-1.28837
-0.1723	0.966897
-0.232341	-1.29849
-0.182311	0.977206
-0.242283	-1.3088
-0.192298	0.981215
-0.252271	-1.32942
-0.202298	0.985034
-0.262312	-1.34317
-0.212285	1.00412
-0.272411	-1.37142
-0.2223	1.00699
-0.282437	-1.38536
-0.232292	1.0173
-0.292428	-1.42335
-0.242275	1.02761
-0.302385	-1.45199
-0.252275	1.03754
-0.312346	-1.50162
-0.262324	1.05548
-0.322414	-1.53542
-0.272372	1.06598
-0.332341	-1.59193
-0.282383	1.09328
-0.34239	-1.66944
-0.292375	1.12841
-0.352359	-1.75554
-0.302366	1.18721
-0.3624	-1.8594
-0.312381	1.24124
-0.372357	-1.98445
-0.322372	1.3115
-0.382402	-2.1387
-0.332391	1.41459
-0.392367	-2.32446
-0.342378	1.52647
-0.402389	-2.56043
-0.352343	1.67156
-0.412369	-2.81511
-0.362385	1.84739
-0.422365	-3.1095
-0.372368	2.0385
-0.432322	-3.43558
-0.382345	2.24812
-0.442355	-3.7903
-0.392325	2.48371
-0.452343	-4.17461
-0.402343	2.713
-0.462339	-4.55854
-0.412323	2.92568
-0.472353	-4.95125
-0.422326	3.1122
-0.482295	-5.33938
-0.43236	3.25099
-0.492321	-5.71147
-0.442332	3.35523
-0.50232	-6.07726
-0.452316	3.41976
-0.512312	-6.42606
-0.462304	3.43904
-0.522334	-6.73916
-0.472365	3.43103
-0.532291	-7.03279
-0.482329	3.39743
-0.54229	-7.31343
-0.492329	3.35562
-0.552297	-7.54215
-0.502274	3.29567
-0.562274	-7.74165
-0.5123	3.22751
-0.572307	-7.89801
-0.522311	3.16012
-0.582276	-8.00531
-0.532322	3.10552
-0.592256	-8.06124
-0.54229	3.06504
-0.602278	-8.06678
-0.552297	3.04118
-0.612369	-8.01275
-0.562277	3.02552
-0.622361	-7.87339
-0.572322	3.03182
-0.632322	-7.67197
-0.582322	3.04233
-0.642405	-7.42226
-0.592313	3.04309
-0.65237	-7.1187
-0.602309	3.04843
-0.66238	-6.78174
-0.612369	3.00529
-0.672372	-6.43447
-0.622368	2.9545
-0.682318	-6.07956
-0.632383	2.87298
-0.692378	-5.75252
-0.642351	2.77963
-0.702373	-5.42377
-0.652312	2.66508
-0.712399	-5.14045
-0.662354	2.53698
-0.72236	-4.89512
-0.672341	2.40849
-0.732341	-4.66946
-0.682371	2.28783
-0.742344	-4.50585
-0.692374	2.17233
-0.752354	-4.36534
-0.702331	2.07515
-0.762331	-4.25289
-0.712319	1.98065
-0.772353	-4.15839
-0.722307	1.91994
-0.782344	-4.09462
-0.732283	1.85828
-0.792252	-4.06083
-0.74237	1.80196
-0.802358	-4.02876
-0.752267	1.759
-0.812289	-3.99745
-0.7623	1.72845
-0.822315	-3.98103
-0.772288	1.69905
-0.832314	-3.96804
-0.782283	1.67481
-0.842355	-3.9417
-0.792313	1.65362
-0.852369	-3.92509
-0.802289	1.62803
-0.862392	-3.89111
-0.812319	1.61352
-0.872356	-3.86743
-0.822311	1.59997
-0.882314	-3.83364
-0.832325	1.58221
-0.892321	-3.79049
-0.842302	1.56656
-0.902278	-3.75384
-0.852293	1.54842
-0.912292	-3.71757
-0.862353	1.53391
-0.922257	-3.67365
-0.872276	1.52456
-0.932291	-3.64635
-0.88231	1.51501
-0.942332	-3.61428
-0.892275	1.5194
-0.952343	-3.58087
-0.902282	1.53219
-0.962407	-3.56942
-0.912323	1.53849
-0.97236	-3.55834
-0.92228	1.5425
-0.982424	-3.54632
-0.932295	1.56618
-0.992385	-3.54517
-0.942282	1.58317
-1.00231	-3.55128
-0.952381	1.59386
-1.01236	-3.55777
-0.962311	1.62383
-1.02239	-3.55701
-0.972349	1.63891
-1.03233	-3.57476
-0.982352	1.65323
-1.0423	-3.57915
-0.992389	1.67366
-1.05238	-3.59614
-1.00238	1.69562
-1.06231	-3.60874
-1.01236	1.7065
-1.07234	-3.64578
-1.02236	1.72101
-1.08234	-3.66965
-1.03238	1.74525
-1.09237	-3.70153
-1.04231	1.75862
-1.10241	-3.75078
-1.05237	1.7737
-1.11235	-3.79679
-1.06235	1.78229
-1.12234	-3.8407
-1.07238	1.80406