File: VFSWV_data_prep/Example_data/CoPc_VFSWV_txt_data/CoPc_CNT_VFSWV_scans_75_74_C02.txt
Ewe/V	<I>/mA
-0.122315	0.0278436
-0.0723533	0.0164954
-0.132326	0.0137768
-0.0823067	0.0190263
-0.142474	0.0174797
-0.0922946	0.0154872
-0.152397	0.0155343
-0.10232	0.0183923
-0.162415	0.0187426
-0.11232	0.0210755
-0.172403	0.0185166
-0.122311	0.0169475
-0.182421	0.0158798
-0.132345	0.0168159
-0.192386	0.0183893
-0.142443	0.0213223
-0.202435	0.0223138
-0.152362	0.0212049
-0.212411	0.0179879
-0.162407	0.0177914
-0.22243	0.0120201
-0.172388	0.0159007
-0.232398	0.0159607
-0.182414	0.0171672
-0.242394	0.0168144
-0.192371	0.0148704
-0.252416	0.0170111
-0.202374	0.0176836
-0.26235	0.0163744
-0.21235	0.0145954
-0.272361	0.0147844
-0.222407	0.0137819
-0.282333	0.0127889
-0.232348	0.0131606
-0.292405	0.0124136
-0.242386	0.0193605
-0.302362	0.0168816
-0.252355	0.016324
-0.312381	0.015343
-0.262362	0.01683
-0.322345	0.017297
-0.27241	0.0205338
-0.332337	0.0203046
-0.282345	0.0239951
-0.342382	0.0208084
-0.292394	0.02107
-0.352393	0.0207987
-0.302362	0.0215978
-0.362316	0.0188299
-0.312373	0.0150944
-0.372364	0.0118261
-0.322418	0.0129807
-0.382364	0.013027
-0.332333	0.0184645
-0.392351	0.0160064
-0.342355	0.0222483
-0.402324	0.0229576
-0.352347	0.0246231
-0.412304	0.0184708
-0.362384	0.0210537
-0.422292	0.0191683
-0.372349	0.0152145
-0.432318	0.0149553
-0.382383	0.0154006
-0.442283	0.0129252
-0.392351	0.0145499
-0.452347	0.015936
-0.402343	0.0152625
-0.462289	0.0136522
-0.412338	0.0158852
-0.47228	0.0146279
-0.422341	0.0186298
-0.482474	0.00695249
-0.432341	0.0111322
-0.492374	0.00910589
-0.442317	0.0143331
-0.502404	0.0113884
-0.452339	0.0104905
-0.512392	0.0110558
-0.462346	0.0160264
-0.522349	0.0144644
-0.472311	0.0144366
-0.532425	0.00768627
-0.482394	0.010991
-0.542378	0.00854938
-0.492412	0.00744589
-0.552354	0.0058621
-0.502423	0.0127587
-0.562396	0.00782879
-0.512403	0.0100502
-0.572334	0.00100549
-0.522391	0.00275275
-0.582386	0.0017728
-0.53236	0.00472462
-0.592355	0.0039208
-0.542409	0.00492986
-0.602373	0.00852233
-0.552354	0.0153226
-0.612346	0.0107893
-0.562369	0.0158235
-0.622345	0.0102395
-0.572414	0.0109919
-0.632382	0.00961736
-0.582398	0.0138166
-0.642324	0.010433
-0.592359	0.0147436
-0.652289	0.0142191
-0.602366	0.0187384
-0.662342	0.015269
-0.612361	0.0177031
-0.67236	0.0167697
-0.622349	0.0173096
-0.68234	0.0154072
-0.63231	0.0189133
-0.692317	0.0186076
-0.64229	0.0197888
-0.702343	0.0166512
-0.652362	0.0155908
-0.712285	0.0131157
-0.662281	0.0111153
-0.722311	0.00399534
-0.67236	0.00466266
-0.732291	0.0024729
-0.682306	0.00710697
-0.742301	0.00860784
-0.692301	0.00754718
-0.75232	0.00337084
-0.702343	0.00903395
-0.762266	0.00590128
-0.712342	0.00945015
-0.772299	0.00843361
-0.722311	0.0109159
-0.782317	0.0064427
-0.732329	0.0110885
-0.792301	0.00137817
-0.742259	0.00346093
-0.802262	0.00497102
-0.752316	0.00921457
-0.812281	0.00905315
-0.762315	0.011252
-0.822383	0.0093231
-0.772307	0.0123499
-0.832443	0.0093481
-0.782264	0.0121538
-0.842404	0.00496538
-0.792347	0.0123559
-0.852419	0.0129234
-0.802285	0.0103796
-0.862372	0.00669222
-0.812269	0.0065481
-0.872379	0.00791338
-0.822368	0.0131144
-0.882329	0.0118044
-0.832405	0.0113982
-0.892408	0.010573
-0.842351	0.011376
-0.902354	0.00906618
-0.852404	0.0120052
-0.912365	0.0136839
-0.862395	0.0149551
-0.922314	0.0154125
-0.872406	0.0191428
-0.932375	0.0200161
-0.88239	0.0200222
-0.942378	0.0148307
-0.89237	0.0180504
-0.952308	0.0184454
-0.902343	0.019857
-0.962296	0.0242097
-0.912384	0.0283956
-0.972345	0.0259358
-0.922314	0.0242498
-0.982336	0.0237039
-0.932333	0.0255766
-0.992381	0.0262248
-0.942305	0.0284769
-1.00237	0.0252752
-0.952331	0.0316338
-1.01228	0.0264058
-0.962387	0.0299178
-1.02234	0.0272313
-0.972322	0.0243361
-1.03232	0.0239534
-0.982344	0.0227545
-1.04233	0.0216116
-0.992358	0.0260928
-1.05231	0.0174635
-1.00245	0.0300424
-1.06235	0.0233104
-1.01235	0.0233268
-1.07236	0.0171582
-1.02234	0.022751
-1.08238	0.0218485
-1.03232	0.0237695
-1.09234	0.0199057
-1.04234	0.0261749
-1.10235	0.0200356
-1.05239	0.0267297
-1.11231	0.0203099
-1.06237	0.0245326
-1.12231	0.0214227
-1.07234	0.0273495