File: VFSWV_data_prep/Example_data/CoPc_VFSWV_txt_data/CoPc_CNT_VFSWV_scans_32_31_C02.txt
Ewe/V	<I>/mA
-0.122345	-0.0168685
-0.0723333	0.0343445
-0.132294	-0.0277026
-0.0823477	0.030908
-0.142316	-0.0281481
-0.0923241	0.0281716
-0.152323	-0.0254117
-0.102354	0.030908
-0.162426	-0.023248
-0.112372	0.0339627
-0.172432	-0.0243935
-0.122322	0.0253079
-0.182393	-0.0362938
-0.132325	0.0252442
-0.192412	-0.0341937
-0.142324	0.0240988
-0.202415	-0.0325391
-0.152312	0.0291262
-0.212387	-0.0434212
-0.162433	0.0300171
-0.222432	-0.0312027
-0.172413	0.0260079
-0.232401	-0.0462849
-0.182447	0.0246079
-0.242438	-0.0455849
-0.192423	0.0233351
-0.252434	-0.0457758
-0.202369	0.0253715
-0.262361	-0.0485123
-0.21238	0.0211714
-0.272406	-0.0501669
-0.222432	0.0233351
-0.282405	-0.0507396
-0.232359	0.0298898
-0.292331	-0.0536033
-0.242332	0.0210441
-0.302392	-0.0590762
-0.252396	0.0265806
-0.312383	-0.0619399
-0.262383	0.0241624
-0.322383	-0.0675401
-0.272402	0.0287443
-0.332378	-0.0616854
-0.28234	0.0321808
-0.34237	-0.0706583
-0.292393	0.0326899
-0.352342	-0.0742857
-0.302354	0.0297626
-0.362311	-0.0784858
-0.312349	0.0286807
-0.372306	-0.0863769
-0.322375	0.0367627
-0.382367	-0.0919134
-0.332336	0.0320535
-0.392362	-0.095159
-0.342389	0.0273443
-0.402376	-0.114696
-0.352354	0.0356809
-0.412326	-0.132069
-0.362341	0.0447175
-0.422329	-0.160006
-0.372356	0.0536268
-0.432344	-0.197044
-0.382313	0.0571269
-0.442347	-0.258072
-0.39237	0.0735455
-0.452353	-0.339147
-0.402353	0.0945461
-0.462315	-0.44275
-0.412338	0.134829
-0.472352	-0.569454
-0.422348	0.195285
-0.482344	-0.730203
-0.432382	0.285715
-0.492347	-0.922072
-0.442358	0.410636
-0.502308	-1.11878
-0.452331	0.552295
-0.512326	-1.33203
-0.462307	0.728954
-0.522272	-1.53338
-0.472291	0.91255
-0.532279	-1.72251
-0.482363	1.09188
-0.542274	-1.88562
-0.492289	1.24964
-0.5523	-2.00863
-0.502334	1.38602
-0.562292	-2.09505
-0.512314	1.4753
-0.572344	-2.12623
-0.522283	1.53289
-0.582424	-2.11051
-0.532343	1.54868
-0.592385	-2.03001
-0.542343	1.53264
-0.602391	-1.90649
-0.552315	1.46779
-0.612391	-1.74504
-0.562314	1.38118
-0.622394	-1.55737
-0.572272	1.26059
-0.632408	-1.36156
-0.582374	1.12746
-0.642362	-1.16835
-0.592385	0.983506
-0.652395	-0.999138
-0.602403	0.840702
-0.662379	-0.860598
-0.612391	0.717308
-0.672382	-0.750122
-0.622386	0.59665
-0.682427	-0.668474
-0.632389	0.495402
-0.692384	-0.614127
-0.642404	0.412036
-0.702368	-0.57009
-0.65238	0.344962
-0.712387	-0.538589
-0.662394	0.301115
-0.722321	-0.530953
-0.672401	0.261278
-0.732339	-0.512243
-0.682374	0.232832
-0.742304	-0.505434
-0.692369	0.212213
-0.752353	-0.497097
-0.702342	0.195922
-0.76231	-0.493851
-0.712371	0.184212
-0.772378	-0.492897
-0.722352	0.180267
-0.782282	-0.49207
-0.732332	0.17053
-0.792323	-0.490924
-0.742396	0.167094
-0.802288	-0.500534
-0.752334	0.164484
-0.812333	-0.494679
-0.76231	0.156466
-0.822302	-0.491179
-0.772375	0.151566
-0.832328	-0.485324
-0.782332	0.147684
-0.842327	-0.481633
-0.792354	0.141638
-0.8523	-0.468651
-0.802307	0.141002
-0.862306	-0.456878
-0.81236	0.130502
-0.872313	-0.453569
-0.822344	0.12802
-0.882316	-0.434923
-0.832343	0.116565
-0.892335	-0.418631
-0.842358	0.11701
-0.9023	-0.407622
-0.852319	0.105174
-0.912348	-0.395276
-0.862368	0.103519
-0.922244	-0.36963
-0.872351	0.0934006
-0.932301	-0.366066
-0.88229	0.0843004
-0.942296	-0.357475
-0.892296	0.0804821
-0.952261	-0.348057
-0.902292	0.0684545
-0.96231	-0.339529
-0.912276	0.0677545
-0.97229	-0.328393
-0.922298	0.0751365
-0.982324	-0.327183
-0.932324	0.0667999
-0.992377	-0.324383
-0.942289	0.0669908
-1.00237	-0.325211
-0.952315	0.0661635
-1.01233	-0.326229
-0.96228	0.0706182
-1.02234	-0.330556
-0.972286	0.065909
-1.03234	-0.337302
-0.982305	0.0741183
-1.04238	-0.336475
-0.992396	0.0706818
-1.05234	-0.347611
-1.00237	0.0755183
-1.06239	-0.343475
-1.01239	0.0794002
-1.07235	-0.346275
-1.02234	0.0782548
-1.08239	-0.352575
-1.03234	0.0853822
-1.09238	-0.36333
-1.0424	0.0918097
-1.10234	-0.368675
-1.05236	0.0918733
-1.11229	-0.384521
-1.06233	0.0918097
-1.12235	-0.40234
-1.07231	0.0945461