File: VFSWV_data_prep/Example_data/CoPc(OMe)8_VFSWV_txt_data/CoPc(OMe)8_CNT_VFSWV_scans_58_57_C02.txt
Ewe/V	<I>/mA
-0.122041	-8.37043e-05
-0.0720797	-0.0020298
-0.132033	-0.0142483
-0.0820979	-0.000785777
-0.142078	-0.0127333
-0.0921086	-0.00322455
-0.152093	-0.00982649
-0.102093	-0.000502486
-0.16208	-0.0153445
-0.112057	-0.00098285
-0.172106	-0.0169827
-0.122102	-0.00461638
-0.182048	-0.0212321
-0.132079	-0.00646394
-0.192044	-0.0150489
-0.142051	0.000211903
-0.202028	-0.0120928
-0.152123	-0.00374187
-0.212046	-0.0151598
-0.162054	-0.0046287
-0.22203	-0.0175862
-0.172015	-0.00464101
-0.232041	-0.0196432
-0.182018	0.000692268
-0.24199	-0.0176724
-0.192051	-0.000613339
-0.252008	-0.017229
-0.202028	-9.60233e-05
-0.262042	-0.0153815
-0.212054	0.000421293
-0.272041	-0.019015
-0.222041	-0.00271955
-0.282143	-0.0174384
-0.232021	-0.00291663
-0.29212	-0.0181159
-0.242047	-0.00170956
-0.302127	-0.0160835
-0.252062	0.00189934
-0.312118	-0.0186332
-0.262004	-0.00331077
-0.322121	-0.0175616
-0.27203	-0.00385272
-0.332086	-0.0204438
-0.282102	-0.00126614
-0.342097	-0.0186455
-0.292128	-0.0010198
-0.352096	-0.0161205
-0.302169	-0.0004409
-0.362114	-0.0173768
-0.312122	-0.00206675
-0.372121	-0.0180296
-0.322083	-0.000490168
-0.382147	-0.0195323
-0.332098	-0.000564071
-0.392078	-0.0199511
-0.342085	0.0012219
-0.402104	-0.0207148
-0.352134	0.00157909
-0.412072	-0.0188672
-0.362099	-0.00175882
-0.422106	-0.0191998
-0.372102	-0.00385272
-0.432071	-0.0217124
-0.382086	0.0017269
-0.442051	-0.0226362
-0.392085	0.000544463
-0.452092	-0.0216632
-0.402108	0.000482878
-0.462068	-0.0192613
-0.412049	0.00076617
-0.472052	-0.0252967
-0.422095	-0.000613339
-0.482094	-0.0178079
-0.432071	-0.00271955
-0.492093	-0.0229934
-0.442036	-0.000145291
-0.502065	-0.0233999
-0.452027	0.00415336
-0.51203	-0.0239049
-0.462038	-0.00252248
-0.522075	-0.0230057
-0.472083	0.00156678
-0.532044	-0.0267255
-0.482075	0.000113367
-0.542058	-0.0285361
-0.492028	-0.000157608
-0.552035	-0.0290164
-0.50205	-0.00280577
-0.562007	-0.0317508
-0.51208	0.00031044
-0.571976	-0.0312705
-0.522079	-0.00150017
-0.582063	-0.0329702
-0.532025	0.000273488
-0.592043	-0.0344236
-0.54207	-0.00377882
-0.602023	-0.0392889
-0.552027	0.00055678
-0.612015	-0.0417769
-0.562023	0.000458244
-0.622018	-0.0428485
-0.572014	-0.000169925
-0.632044	-0.0426884
-0.582055	0.00198556
-0.642016	-0.0426884
-0.592032	0.00451055
-0.652	-0.0451025
-0.602065	0.000507512
-0.662042	-0.0465806
-0.612019	0.0111125
-0.672018	-0.0482187
-0.622006	0.00843969
-0.682009	-0.0462234
-0.63204	0.0121718
-0.692032	-0.0466298
-0.641974	0.00579153
-0.701985	-0.0526159
-0.652012	0.00807018
-0.712114	-0.052037
-0.662015	0.0107799
-0.722102	-0.0499554
-0.671999	0.00905554
-0.732074	-0.0460632
-0.682009	0.0102626
-0.742066	-0.0477999
-0.692012	0.0111125
-0.752122	-0.0461618
-0.702084	0.0119377
-0.762103	-0.0431441
-0.712133	0.0107183
-0.772106	-0.0464328
-0.722067	0.01094
-0.782143	-0.0471225
-0.732093	0.0114204
-0.792054	-0.0507807
-0.742073	0.00731884
-0.802107	-0.043957
-0.752077	0.0097453
-0.81208	-0.0441787
-0.762099	0.0119747
-0.822121	-0.0440925
-0.772121	0.0106198
-0.832097	-0.04477
-0.782109	0.00750359
-0.842058	-0.0479231
-0.792073	0.00999164
-0.852096	-0.0456198
-0.802042	0.00965908
-0.862045	-0.0464081
-0.812087	0.0117037
-0.872117	-0.0429101
-0.822071	0.0123196
-0.882055	-0.0457184
-0.832055	0.00933883
-0.892131	-0.0474797
-0.842115	0.0083781
-0.902099	-0.0474797
-0.85213	0.0103858
-0.912007	-0.0458415
-0.86211	0.00681384
-0.922083	-0.0390672
-0.872102	0.00867371
-0.932055	-0.0443881
-0.882059	0.0101764
-0.942077	-0.0429593
-0.892081	0.0135636
-0.952069	-0.0460756
-0.902057	0.0103611
-0.962079	-0.0467899
-0.912022	0.0126152
-0.972018	-0.0432426
-0.922113	0.00932652
-0.982082	-0.0469624
-0.932082	0.00821798
-0.992035	-0.0497091
-0.942005	0.0100532
-1.00206	-0.0433412
-0.952096	0.0105213
-1.01204	-0.0481079
-0.962087	0.0098192
-1.02204	-0.03972
-0.972037	0.0144627
-1.03206	-0.0461371
-0.982028	0.0087353
-1.04201	-0.0462234
-0.992031	0.0134897
-1.05208	-0.0503373
-1.00202	0.00771298
-1.06203	-0.0556336
-1.01203	0.00552055
-1.07201	-0.050559
-1.02201	0.00825493
-1.08209	-0.0609669
-1.03202	0.00589006
-1.09203	-0.0575674
-1.04204	0.00437506
-1.10206	-0.0571486
-1.05204	0.0055575
-1.11207	-0.0593287
-1.06202	0.00267531
-1.12212	-0.0629499
-1.07207	0.00221958