File: VFSWV_data_prep/Example_data/CoPc(OMe)8_VFSWV_txt_data/CoPc(OMe)8_CNT_VFSWV_scans_50_49_C02.txt
Ewe/V	<I>/mA
-0.122041	-0.0134477
-0.07203	0.0149985
-0.132044	-0.0161205
-0.0821017	0.0106075
-0.142025	-0.0189297
-0.0920743	0.00828925
-0.152012	-0.0190115
-0.102028	0.00460733
-0.162015	-0.0211115
-0.112042	0.00894381
-0.171988	-0.023648
-0.12203	0.00523462
-0.182079	-0.0206752
-0.132037	0.00692557
-0.192017	-0.0137204
-0.141986	0.0090529
-0.20202	-0.0202661
-0.152028	0.00490734
-0.212027	-0.0241116
-0.161962	0.00668011
-0.221988	-0.0234025
-0.172003	0.009162
-0.232018	-0.0244935
-0.182048	0.00542553
-0.241979	-0.028639
-0.192036	0.00373458
-0.252031	-0.0304391
-0.202047	0.00880744
-0.262015	-0.0288027
-0.212023	0.00809833
-0.272049	-0.0316118
-0.222026	0.00365276
-0.282128	-0.0302209
-0.232014	0.00662557
-0.292097	-0.0318573
-0.242036	0.00526189
-0.302077	-0.0354574
-0.251978	0.000898139
-0.312084	-0.0391939
-0.262004	0.00204362
-0.322102	-0.0394666
-0.272007	-0.001011
-0.332048	-0.0364392
-0.282113	0.0019618
-0.342085	-0.0422212
-0.292101	-0.00302924
-0.352104	-0.040503
-0.302115	0.00348912
-0.362069	-0.039412
-0.312176	0.00157997
-0.372133	-0.039412
-0.322068	0.000816318
-0.382048	-0.0416485
-0.332105	0.000216302
-0.392116	-0.0445395
-0.342082	0.00447096
-0.402153	-0.0414303
-0.352073	0.00550735
-0.412072	-0.0441303
-0.362095	0.00572554
-0.422037	-0.0461486
-0.372121	0.005971
-0.432063	-0.0404484
-0.382056	0.00324366
-0.442093	-0.0432031
-0.39207	0.00441642
-0.452096	-0.0441031
-0.402023	0.00507098
-0.462088	-0.0436667
-0.412057	0.00209817
-0.472056	-0.0433121
-0.422079	0.00708921
-0.482021	-0.0500487
-0.432086	0.0063801
-0.492062	-0.0454122
-0.442074	0.00676193
-0.502023	-0.0476486
-0.452058	0.0104438
-0.512076	-0.0537579
-0.462099	0.0102257
-0.522064	-0.0481395
-0.472068	0.00929836
-0.532044	-0.047485
-0.482059	0.00788014
-0.542005	-0.0530488
-0.492009	0.0166895
-0.552023	-0.0583671
-0.502046	0.0154894
-0.562003	-0.06584
-0.512065	0.00676193
-0.572049	-0.0715674
-0.522071	0.0133894
-0.581983	-0.0738584
-0.532059	0.0086438
-0.59199	-0.0869224
-0.542051	0.0130348
-0.602042	-0.0892134
-0.552054	0.0155985
-0.61203	-0.0976682
-0.562046	0.0168531
-0.622006	-0.103286
-0.572056	0.0206168
-0.631987	-0.113105
-0.581971	0.027517
-0.642016	-0.114278
-0.591997	0.0329445
-0.651996	-0.116814
-0.602065	0.0330535
-0.661996	-0.130642
-0.611981	0.0355082
-0.67198	-0.12846
-0.621995	0.0433902
-0.682002	-0.129687
-0.632002	0.0437447
-0.692013	-0.135033
-0.642009	0.0482449
-0.702	-0.12636
-0.651966	0.0412356
-0.712072	-0.124069
-0.661996	0.0489812
-0.72206	-0.128269
-0.671972	0.039981
-0.732055	-0.125569
-0.682006	0.0398174
-0.742035	-0.126769
-0.691986	0.0355627
-0.752073	-0.12396
-0.702084	0.0324535
-0.762041	-0.122732
-0.712083	0.0341445
-0.772064	-0.115832
-0.722094	0.0345809
-0.781994	-0.120005
-0.732051	0.0297535
-0.792081	-0.116132
-0.742047	0.0276807
-0.801993	-0.110978
-0.752084	0.03499
-0.812041	-0.112778
-0.762049	0.0276807
-0.822067	-0.119023
-0.772087	0.0215714
-0.832105	-0.114032
-0.782055	0.0238351
-0.842073	-0.116814
-0.792051	0.0213805
-0.852046	-0.115369
-0.802057	0.0221714
-0.862053	-0.116705
-0.81208	0.023426
-0.872083	-0.119269
-0.822006	0.0220078
-0.882044	-0.118451
-0.83204	0.0205623
-0.892066	-0.117523
-0.842001	0.0230987
-0.902054	-0.120114
-0.852073	0.0214078
-0.912068	-0.119051
-0.862064	0.0220896
-0.922052	-0.119678
-0.871987	0.0222805
-0.932002	-0.116132
-0.882032	0.022826
-0.942077	-0.118941
-0.892016	0.0258261
-0.952019	-0.116896
-0.902061	0.0235897
-0.96206	-0.118096
-0.912022	0.0212169
-0.972021	-0.112941
-0.921999	0.0196077
-0.982055	-0.118996
-0.932028	0.0221169
-0.992012	-0.117632
-0.942062	0.0191168
-1.00203	-0.120632
-0.952034	0.0191168
-1.01205	-0.122323
-0.962026	0.0199896
-1.02201	-0.12306
-0.972021	0.0221714
-1.032	-0.123905
-0.982036	0.0214078
-1.04202	-0.120823
-0.992039	0.0215714
-1.05199	-0.123769
-1.00212	0.0179713
-1.06199	-0.121778
-1.01202	0.0216805
-1.07199	-0.125842
-1.022	0.0163349
-1.08202	-0.130178
-1.03196	0.0192532
-1.09201	-0.135196
-1.042	0.0168531
-1.10199	-0.135987
-1.05204	0.0188441
-1.11199	-0.141633
-1.06199	0.0151622
-1.12206	-0.143624
-1.072	0.0163895