File: VFSWV_data_prep/Example_data/CoPc(OMe)8_VFSWV_txt_data/CoPc(OMe)8_CNT_VFSWV_scans_52_51_C02.txt
Ewe/V	<I>/mA
-0.122045	0.00297092
-0.0720911	0.0195592
-0.132056	-0.00188678
-0.0821056	0.0180531
-0.142044	-0.0128113
-0.0920246	0.00869835
-0.152058	-0.00413533
-0.10207	0.00823167
-0.162099	-0.014678
-0.112042	0.0124954
-0.172038	-0.0161841
-0.122041	0.0145955
-0.182044	-0.0119204
-0.132044	0.0122621
-0.192044	-0.0072536
-0.142032	0.0132379
-0.202031	-0.00950214
-0.15207	0.00617404
-0.212057	-0.0121113
-0.162019	0.00980141
-0.222068	-0.00829302
-0.172026	0.014744
-0.231991	-0.0119416
-0.182075	0.0133015
-0.242028	-0.0134901
-0.192044	0.0160592
-0.25202	-0.013872
-0.202066	0.0120287
-0.262053	-0.0129598
-0.212019	0.0182865
-0.272014	-0.0165872
-0.222015	0.0153167
-0.282094	-0.020554
-0.232041	0.00787105
-0.292127	-0.0216358
-0.242051	0.0136621
-0.30215	-0.0143598
-0.252016	0.0144046
-0.312134	-0.0158872
-0.262034	0.0116893
-0.322102	-0.017372
-0.271992	0.0127075
-0.332117	-0.0159932
-0.282124	0.0152743
-0.342082	-0.0197903
-0.292116	0.00492249
-0.352123	-0.0166296
-0.302153	0.00297092
-0.362084	-0.0199176
-0.312065	0.00746801
-0.372064	-0.0217207
-0.322129	0.0143621
-0.382075	-0.0173933
-0.332105	0.0140015
-0.392074	-0.0173084
-0.342021	0.0163349
-0.402108	-0.0203418
-0.352127	0.0154228
-0.412091	-0.0214661
-0.362114	0.0166319
-0.422041	-0.0225904
-0.372087	0.0109681
-0.432075	-0.0238843
-0.382063	0.0119863
-0.442036	-0.0260905
-0.392124	0.00734074
-0.452046	-0.0298663
-0.402062	0.00958928
-0.462076	-0.0319876
-0.412027	0.0130894
-0.472033	-0.0281269
-0.422125	0.0127075
-0.482036	-0.0331967
-0.432067	0.0074468
-0.492047	-0.0291663
-0.44204	0.0114772
-0.502039	-0.032921
-0.452062	0.013153
-0.512045	-0.0332179
-0.462091	0.0123257
-0.522041	-0.0327088
-0.472068	0.0167167
-0.53204	-0.0407484
-0.482048	0.00409519
-0.542039	-0.0411939
-0.492081	0.00893169
-0.552	-0.0447576
-0.502054	0.00838016
-0.562042	-0.0488093
-0.512038	0.00723467
-0.572045	-0.0471335
-0.522045	0.0135561
-0.582006	-0.0510154
-0.532025	0.0116681
-0.591997	-0.0536458
-0.542062	0.0132167
-0.602046	-0.0578034
-0.552107	0.0154228
-0.612045	-0.0611975
-0.562034	0.0168864
-0.622041	-0.0671794
-0.572064	0.0184562
-0.63201	-0.0699795
-0.582063	0.0210229
-0.642078	-0.0760039
-0.592043	0.0219563
-0.652019	-0.0765979
-0.602058	0.0239715
-0.662053	-0.0754736
-0.612064	0.0274716
-0.672098	-0.0818586
-0.622056	0.0315444
-0.681998	-0.086186
-0.632044	0.0278958
-0.692035	-0.0804586
-0.642009	0.0280655
-0.701989	-0.0852102
-0.65205	0.0281716
-0.712064	-0.0846163
-0.661996	0.0263261
-0.722048	-0.0858678
-0.672006	0.0242048
-0.732082	-0.0825374
-0.682002	0.0258594
-0.742074	-0.0839587
-0.692028	0.0281292
-0.7521	-0.0868648
-0.702088	0.0219987
-0.762099	-0.0848708
-0.712061	0.0244594
-0.772098	-0.0818798
-0.722136	0.0266231
-0.782093	-0.0842769
-0.732082	0.0226351
-0.792062	-0.0833011
-0.742077	0.02342
-0.802061	-0.0823677
-0.752103	0.0239927
-0.812011	-0.0811162
-0.76203	0.0180531
-0.822109	-0.0828132
-0.772087	0.0165046
-0.832055	-0.0834496
-0.78209	0.0185835
-0.842051	-0.0861012
-0.792062	0.0178622
-0.852103	-0.083895
-0.802084	0.0192198
-0.862026	-0.0854648
-0.812095	0.0210441
-0.872064	-0.0878406
-0.822083	0.0140864
-0.88204	-0.0866951
-0.83207	0.0141076
-0.89205	-0.090471
-0.842058	0.0176289
-0.902004	-0.086886
-0.852065	0.0141288
-0.912079	-0.0867163
-0.862072	0.0175228
-0.92206	-0.0862072
-0.872052	0.0130469
-0.932005	-0.0799919
-0.882032	0.0194956
-0.94207	-0.0819435
-0.892066	0.0182653
-0.952023	-0.0807344
-0.902088	0.0183713
-0.962018	-0.0833647
-0.912034	0.0191562
-0.972063	-0.0848072
-0.92201	0.0200047
-0.981979	-0.0830041
-0.932044	0.0174168
-0.992016	-0.0872891
-0.942043	0.0186895
-1.00205	-0.0867375
-0.952023	0.011859
-1.01203	-0.0845739
-0.962099	0.0166107
-1.02203	-0.090471
-0.972006	0.0187107
-1.03207	-0.0901528
-0.982059	0.01275
-1.04204	-0.0872467
-0.992005	0.0137894
-1.05207	-0.093165
-1.00204	0.0134076
-1.06204	-0.0880315
-1.01209	0.00738316
-1.07198	-0.0920407
-1.02204	0.0178834
-1.082	-0.0946711
-1.03208	0.0150834
-1.092	-0.0949681
-1.04204	0.0132379
-1.10206	-0.098256
-1.05202	0.0105439
-1.112	-0.0985954
-1.06204	0.0165683
-1.12211	-0.103305
-1.07201	0.013853