File: VFSWV_data_prep/Example_data/CoPc(OMe)8_VFSWV_txt_data/CoPc(OMe)8_CNT_VFSWV_scans_03_2_C02.txt
Ewe/V	<I>/mA
-0.122129	-2.7565
-0.0721216	5.14792
-0.132079	-5.70231
-0.0821437	4.23096
-0.142051	-6.05225
-0.0921354	4.07498
-0.1521	-6.12881
-0.102104	4.03508
-0.162107	-6.14848
-0.11213	4.03565
-0.17206	-6.1542
-0.122118	4.01255
-0.182071	-6.17616
-0.132155	4.01503
-0.192109	-6.19601
-0.142044	4.00682
-0.202089	-6.2279
-0.152089	4.00453
-0.212054	-6.25959
-0.162076	3.99556
-0.222057	-6.28708
-0.172095	3.99785
-0.232079	-6.32641
-0.182094	3.99823
-0.242063	-6.36364
-0.19212	3.99308
-0.252073	-6.40659
-0.202081	3.98143
-0.262095	-6.45337
-0.212107	3.98525
-0.272049	-6.49231
-0.22206	3.99136
-0.282174	-6.54615
-0.232033	3.98945
-0.292192	-6.56811
-0.242082	3.9864
-0.302184	-6.60381
-0.252024	3.98162
-0.312114	-6.63435
-0.262038	3.97055
-0.322179	-6.67139
-0.272114	3.95929
-0.33214	-6.69373
-0.282163	3.93428
-0.342185	-6.71339
-0.292166	3.92454
-0.352096	-6.74184
-0.302176	3.91557
-0.362156	-6.7783
-0.312153	3.90946
-0.372159	-6.79319
-0.322118	3.898
-0.382189	-6.8329
-0.332155	3.88712
-0.392177	-6.86097
-0.342124	3.87987
-0.402146	-6.89705
-0.352123	3.87528
-0.412156	-6.94459
-0.362122	3.87796
-0.422102	-6.98869
-0.372125	3.8665
-0.432094	-7.04673
-0.38214	3.85791
-0.442101	-7.09465
-0.39212	3.85906
-0.452123	-7.1481
-0.402111	3.85352
-0.462088	-7.21683
-0.412145	3.84493
-0.472079	-7.28193
-0.422064	3.84474
-0.482105	-7.36173
-0.43209	3.83347
-0.49207	-7.44917
-0.442143	3.84264
-0.502119	-7.5496
-0.452104	3.83882
-0.512145	-7.65823
-0.462126	3.82966
-0.522114	-7.79167
-0.472125	3.82794
-0.532147	-7.95109
-0.482136	3.81381
-0.542112	-8.14028
-0.492101	3.79014
-0.552092	-8.34628
-0.502077	3.75921
-0.56208	-8.57366
-0.512076	3.70747
-0.572068	-8.82681
-0.522071	3.63588
-0.582094	-9.11815
-0.532059	3.54157
-0.592058	-9.39707
-0.542112	3.40831
-0.602103	-9.70654
-0.552096	3.27199
-0.612076	-10.0172
-0.562076	3.10628
-0.622068	-10.341
-0.572113	2.91308
-0.632059	-10.6525
-0.582032	2.71949
-0.642062	-10.9658
-0.592062	2.51674
-0.652039	-11.2478
-0.602039	2.31857
-0.662064	-11.5193
-0.612137	2.11582
-0.672048	-11.7654
-0.622075	1.93636
-0.682002	-11.9714
-0.632109	1.78172
-0.692047	-12.1292
-0.642085	1.65113
-0.702046	-12.2585
-0.652046	1.54766
-0.712076	-12.3377
-0.662061	1.49458
-0.722159	-12.3454
-0.672083	1.48332
-0.732105	-12.2957
-0.682048	1.50642
-0.742104	-12.1903
-0.692097	1.56255
-0.752168	-12.0622
-0.702119	1.62555
-0.762133	-11.8597
-0.712175	1.73685
-0.77214	-11.6455
-0.722106	1.86763
-0.782112	-11.412
-0.732109	1.986
-0.792123	-11.1699
-0.742127	2.12193
-0.802134	-10.9419
-0.752134	2.22655
-0.812045	-10.7276
-0.762202	2.31628
-0.822113	-10.545
-0.772113	2.39169
-0.832116	-10.3847
-0.782105	2.44362
-0.842119	-10.247
-0.792123	2.48944
-0.852138	-10.1411
-0.802145	2.51426
-0.862152	-10.0559
-0.81211	2.52533
-0.872128	-9.98051
-0.822144	2.53698
-0.882131	-9.92457
-0.832112	2.54137
-0.8921	-9.88333
-0.842135	2.55282
-0.902092	-9.84706
-0.852153	2.54633
-0.912064	-9.82338
-0.862083	2.54022
-0.922098	-9.81766
-0.872094	2.53201
-0.932101	-9.81231
-0.882135	2.5217
-0.942047	-9.81479
-0.892115	2.50624
-0.952073	-9.81899
-0.90213	2.48638
-0.962114	-9.84152
-0.912114	2.46309
-0.972086	-9.85565
-0.922151	2.44037
-0.982089	-9.8881
-0.932128	2.41326
-0.992054	-9.90777
-0.942119	2.38787
-1.00211	-9.9385
-0.952145	2.36725
-1.01208	-9.96867
-0.962102	2.34511
-1.02209	-9.99979
-0.972105	2.33766
-1.03211	-10.02
-0.982135	2.32773
-1.04205	-10.03
-0.9921	2.32735
-1.05202	-10.0294
-1.0021	2.33384
-1.06205	-10.0321
-1.01208	2.33747
-1.07207	-10.0223
-1.0221	2.34072
-1.0821	-10.0256
-1.03205	2.35141
-1.09209	-10.0189
-1.04207	2.36172
-1.10203	-10.0114
-1.05213	2.35828
-1.11204	-10.0088
-1.0621	2.35484
-1.12219	-10.0191
-1.07216	2.36248