File: VFSWV_data_prep/Example_data/CoPc(OMe)8_VFSWV_txt_data/CoPc(OMe)8_CNT_VFSWV_scans_70_69_C02.txt
Ewe/V	<I>/mA
-0.122057	-0.00106081
-0.0721025	0.0195332
-0.132071	-0.000451014
-0.082098	0.0108192
-0.142044	0.00192955
-0.092059	0.0143577
-0.152031	0.000514143
-0.10207	0.0124524
-0.162023	0.00175452
-0.112077	0.0140477
-0.172076	0.0069712
-0.122064	0.016403
-0.182113	0.00349807
-0.132075	0.0154616
-0.19199	0.00103925
-0.142101	0.0136961
-0.202024	0.00236733
-0.152051	0.0190077
-0.212038	0.0080475
-0.162008	0.0202591
-0.222018	0.00382168
-0.172041	0.014112
-0.232033	0.00215714
-0.182044	0.0154541
-0.242021	-0.00263953
-0.192067	0.0142292
-0.252039	0.00104341
-0.202077	0.0103466
-0.262046	-0.00451994
-0.212065	0.00890249
-0.272045	-0.00409918
-0.222003	0.00919737
-0.282094	-0.00719426
-0.232048	0.00478177
-0.292078	-0.00576977
-0.242017	0.00540933
-0.302062	-0.00367085
-0.251986	0.00894786
-0.312122	-0.00172541
-0.262061	0.00691396
-0.322102	-0.00242291
-0.272022	0.00931835
-0.332098	-0.00403529
-0.282082	0.00563616
-0.342089	-0.00374268
-0.292116	0.0106755
-0.352062	-0.0019564
-0.302104	0.00664177
-0.362134	-0.00513541
-0.312111	0.0124372
-0.372117	-0.00618033
-0.322118	0.00875883
-0.382094	-0.000840025
-0.332105	0.0121499
-0.392097	-0.00214089
-0.342047	0.0129022
-0.402092	0.00128763
-0.352081	0.00724286
-0.412069	-0.0069421
-0.362084	0.00656238
-0.422064	-0.00671943
-0.372064	0.00458897
-0.432048	-0.0078566
-0.382136	0.00777969
-0.442078	-0.00530288
-0.392089	0.00489519
-0.452092	-0.00593422
-0.402096	0.00562482
-0.462057	-0.00591267
-0.412095	0.00656616
-0.472079	-0.00405608
-0.422049	0.00645652
-0.482029	-0.000972342
-0.432044	0.00990432
-0.492089	-0.00274652
-0.442074	0.0107663
-0.502023	-0.00224107
-0.452069	0.0103277
-0.512099	-0.00555164
-0.462049	0.00589323
-0.522049	-0.00375326
-0.472106	0.00866054
-0.532055	-0.00531271
-0.482075	0.0138625
-0.542032	-0.00468099
-0.492039	0.0111972
-0.552046	-0.00376082
-0.502092	0.00738652
-0.562068	-0.00544541
-0.512034	0.00806701
-0.572102	-0.00703661
-0.522026	0.0104979
-0.58204	-0.00547867
-0.532052	0.00646786
-0.592032	-0.00913591
-0.54202	0.00704628
-0.601977	-0.00999143
-0.552069	0.00956408
-0.611977	-0.0103351
-0.562023	0.00895164
-0.622033	-0.0108152
-0.572045	0.00652079
-0.632013	-0.0108749
-0.582013	0.00985139
-0.64199	-0.00979182
-0.592039	0.00841859
-0.65197	-0.00759688
-0.602069	0.0064603
-0.662	-0.0132801
-0.612011	0.00928054
-0.672022	-0.00963115
-0.622006	0.00917847
-0.682006	-0.0116552
-0.632044	0.00997615
-0.692043	-0.0118416
-0.642016	0.0139192
-0.702023	-0.0109683
-0.652042	0.0174388
-0.712103	-9.14901e-05
-0.661988	0.0178093
-0.722048	-0.00736476
-0.672014	0.0169058
-0.732048	-0.00586693
-0.68196	0.0159569
-0.742119	-0.0025953
-0.691974	0.0148719
-0.752069	-0.00572856
-0.702111	0.0166449
-0.762041	-0.00742713
-0.712125	0.0154465
-0.772109	-0.00304896
-0.722121	0.0131858
-0.782032	-0.0060121
-0.732074	0.0190191
-0.792062	-0.00776738
-0.742058	0.0209395
-0.802061	-0.00863575
-0.752065	0.0138096
-0.812057	-0.00787172
-0.762072	0.0169398
-0.82206	-0.00645668
-0.772087	0.0175295
-0.832086	-0.00694852
-0.782093	0.0205086
-0.842035	-0.00360242
-0.792081	0.017023
-0.852019	-0.00529835
-0.80205	0.0180361
-0.86211	-0.00305879
-0.812038	0.0187091
-0.872064	-0.0047464
-0.822067	0.0167621
-0.882109	-0.00248189
-0.832063	0.0160627
-0.892054	-0.00553576
-0.842115	0.0158624
-0.902042	-0.00925159
-0.852054	0.0133937
-0.912003	-0.00950526
-0.862049	0.0119647
-0.922033	-0.00876278
-0.872067	0.0146904
-0.932024	-0.00313818
-0.882047	0.013991
-0.9421	-0.00699881
-0.892104	0.01573
-0.952042	-0.0077946
-0.902073	0.0153104
-0.962076	-0.00905123
-0.912072	0.0167016
-0.971995	-0.0074018
-0.922018	0.017057
-0.982043	-0.00722601
-0.932067	0.0195483
-0.992035	-0.00398538
-0.942104	0.0204292
-1.00206	-0.00329469
-0.952046	0.0168604
-1.01202	-0.00171974
-0.962011	0.0183348
-1.02203	-0.00429879
-0.971995	0.019915
-1.03208	0.0011761
-0.982028	0.0260394
-1.04205	0.000147814
-0.992062	0.0232003
-1.05203	0.0012812
-1.00204	0.0218204
-1.06204	-0.00246979
-1.01208	0.0189321
-1.07202	-0.00528436
-1.02202	0.0200662
-1.08202	-0.00233445
-1.032	0.0203082
-1.09205	-0.00455737
-1.04204	0.0259222
-1.10201	-0.00831063
-1.05203	0.0199339
-1.11205	-0.00526054
-1.06202	0.0225084
-1.1221	-0.00699049
-1.07199	0.0227617