File: VFSWV_data_prep/Example_data/CoPc(OMe)8_VFSWV_txt_data/CoPc(OMe)8_CNT_VFSWV_scans_36_35_C02.txt
Ewe/V	<I>/mA
-0.122122	-0.000847363
-0.0720949	0.0631089
-0.132075	-0.0206388
-0.0821285	0.0569996
-0.142044	-0.0226116
-0.092059	0.0522904
-0.152054	-0.0235025
-0.10207	0.0474539
-0.162054	-0.0274481
-0.112103	0.0500631
-0.17208	-0.0296118
-0.12206	0.0474539
-0.182098	-0.0334301
-0.132113	0.0573178
-0.192078	-0.0318391
-0.142074	0.0527995
-0.202073	-0.0357847
-0.152043	0.0480267
-0.212054	-0.0319664
-0.162065	0.0517177
-0.222015	-0.0378211
-0.172099	0.0466266
-0.232033	-0.0477486
-0.182048	0.048154
-0.242036	-0.0474941
-0.19204	0.0419174
-0.252035	-0.0504851
-0.202005	0.0505722
-0.262034	-0.0502941
-0.212046	0.0526723
-0.271995	-0.0551306
-0.222053	0.0471994
-0.282128	-0.0597126
-0.232075	0.0466266
-0.292082	-0.0583762
-0.242036	0.0469448
-0.302138	-0.0637218
-0.252012	0.0522268
-0.312134	-0.0641672
-0.26205	0.0553451
-0.322106	-0.0576125
-0.272037	0.0558542
-0.332128	-0.0643582
-0.282182	0.0490449
-0.342093	-0.0705947
-0.292086	0.0571906
-0.352142	-0.0697674
-0.3021	0.0536268
-0.362103	-0.0770858
-0.31213	0.0534995
-0.372106	-0.0760039
-0.322137	0.0541359
-0.382128	-0.0764494
-0.332098	0.0512722
-0.392059	-0.0794404
-0.342116	0.057636
-0.402081	-0.086186
-0.352123	0.0527995
-0.412095	-0.0945226
-0.36213	0.0549632
-0.422052	-0.0968772
-0.372125	0.0559814
-0.432033	-0.0963681
-0.382101	0.0540087
-0.442089	-0.103114
-0.392101	0.0552814
-0.452035	-0.103241
-0.402123	0.0554723
-0.46208	-0.119087
-0.412122	0.0575087
-0.472049	-0.110496
-0.42206	0.0566178
-0.482098	-0.120105
-0.432052	0.0573178
-0.492055	-0.123096
-0.442059	0.0618998
-0.502027	-0.135251
-0.452031	0.0627907
-0.512072	-0.145751
-0.462072	0.0655908
-0.522037	-0.161406
-0.472037	0.0735455
-0.532105	-0.178079
-0.482117	0.0710637
-0.542081	-0.201753
-0.492059	0.0837276
-0.552039	-0.230581
-0.502104	0.0892005
-0.562061	-0.280028
-0.512068	0.107019
-0.572083	-0.339211
-0.522049	0.120065
-0.582025	-0.407749
-0.532075	0.153602
-0.59202	-0.492388
-0.54207	0.190703
-0.602042	-0.586763
-0.552081	0.24995
-0.612095	-0.683493
-0.562061	0.316516
-0.622033	-0.778314
-0.57201	0.399245
-0.632025	-0.876953
-0.582055	0.486493
-0.642009	-0.946636
-0.592093	0.57005
-0.652061	-1.01047
-0.602042	0.642788
-0.662049	-1.04871
-0.612072	0.696244
-0.671968	-1.05317
-0.622033	0.735
-0.682036	-1.03236
-0.632055	0.750018
-0.691997	-1.00073
-0.642005	0.749127
-0.70197	-0.939318
-0.651996	0.72189
-0.712129	-0.874407
-0.662042	0.685171
-0.722129	-0.798041
-0.672045	0.633179
-0.732158	-0.725621
-0.682017	0.57565
-0.742043	-0.652056
-0.69202	0.517676
-0.752111	-0.604582
-0.702164	0.452765
-0.762076	-0.550999
-0.712103	0.388427
-0.772148	-0.50817
-0.722125	0.349862
-0.78212	-0.480551
-0.732051	0.308688
-0.792066	-0.457323
-0.742081	0.271587
-0.802073	-0.436514
-0.752122	0.234232
-0.812091	-0.426586
-0.762057	0.213104
-0.822113	-0.411886
-0.772132	0.196685
-0.832109	-0.404822
-0.782101	0.181221
-0.842009	-0.406986
-0.792085	0.171675
-0.852103	-0.399031
-0.802176	0.161112
-0.862072	-0.399858
-0.812076	0.153666
-0.872071	-0.393303
-0.822041	0.147238
-0.882089	-0.403931
-0.83212	0.148829
-0.8921	-0.392221
-0.842131	0.143993
-0.902107	-0.399667
-0.852096	0.139347
-0.912087	-0.405713
-0.86203	0.137184
-0.922147	-0.40304
-0.872083	0.13852
-0.932112	-0.40304
-0.882112	0.13922
-0.942092	-0.403485
-0.892089	0.137247
-0.952034	-0.405713
-0.902088	0.134129
-0.962091	-0.404249
-0.912091	0.138965
-0.972044	-0.402913
-0.922094	0.134893
-0.982082	-0.398331
-0.932063	0.14342
-0.992066	-0.401704
-0.942062	0.138775
-1.00202	-0.401704
-0.952061	0.134956
-1.01208	-0.402404
-0.962064	0.146793
-1.02205	-0.399985
-0.972048	0.138265
-1.03205	-0.399285
-0.982032	0.143229
-1.04196	-0.398522
-0.992066	0.139856
-1.052	-0.402913
-1.00204	0.137693
-1.062	-0.411058
-1.012	0.135784
-1.07202	-0.408704
-1.02206	0.143038
-1.08201	-0.409404
-1.03203	0.137247
-1.09202	-0.415513
-1.04206	0.144375
-1.10203	-0.416786
-1.05206	0.131838
-1.11206	-0.424804
-1.06204	0.135656
-1.12209	-0.443387
-1.07202	0.133938