File: VFSWV_data_prep/Example_data/CoPc(OMe)8_VFSWV_txt_data/CoPc(OMe)8_CNT_VFSWV_scans_16_15_C02.txt
Ewe/V	<I>/mA
-0.122106	-0.169234
-0.0721445	0.392818
-0.132086	-0.441605
-0.0821285	0.365708
-0.142089	-0.452041
-0.0920667	0.354635
-0.1521	-0.461842
-0.102096	0.344198
-0.162073	-0.465023
-0.112099	0.340762
-0.172083	-0.47406
-0.12211	0.339107
-0.18206	-0.485388
-0.132048	0.345216
-0.192067	-0.496461
-0.142086	0.343435
-0.202047	-0.506643
-0.152093	0.342925
-0.212069	-0.523316
-0.162034	0.351198
-0.222087	-0.541389
-0.172045	0.356035
-0.232071	-0.553226
-0.182048	0.360235
-0.242101	-0.578426
-0.192055	0.370672
-0.252073	-0.58759
-0.202085	0.387854
-0.262111	-0.610373
-0.212073	0.388872
-0.272007	-0.628828
-0.222129	0.404273
-0.282155	-0.648301
-0.232052	0.417509
-0.292162	-0.667011
-0.24204	0.423619
-0.302172	-0.683938
-0.252092	0.431001
-0.312179	-0.692975
-0.262076	0.431001
-0.322129	-0.707994
-0.272045	0.432401
-0.332151	-0.728867
-0.282128	0.448819
-0.342154	-0.729631
-0.292135	0.457856
-0.352092	-0.751777
-0.302173	0.458747
-0.362114	-0.763104
-0.312141	0.471856
-0.372102	-0.77825
-0.322118	0.475165
-0.382147	-0.797341
-0.332121	0.484838
-0.392108	-0.810196
-0.34215	0.491202
-0.402119	-0.844052
-0.352062	0.496166
-0.412053	-0.86658
-0.362122	0.503803
-0.422129	-0.901581
-0.372125	0.517548
-0.432117	-0.926781
-0.382098	0.534858
-0.442097	-0.962928
-0.392143	0.550004
-0.452092	-0.997929
-0.402161	0.568331
-0.462084	-1.04553
-0.412049	0.593532
-0.472052	-1.09148
-0.422079	0.624206
-0.482097	-1.15448
-0.432094	0.650679
-0.492093	-1.22804
-0.442116	0.688353
-0.502104	-1.31637
-0.452077	0.728827
-0.512107	-1.4229
-0.462084	0.786356
-0.522125	-1.55234
-0.472045	0.856867
-0.532082	-1.71577
-0.482059	0.95856
-0.542116	-1.91712
-0.492101	1.07515
-0.552115	-2.13641
-0.502062	1.22431
-0.562068	-2.39415
-0.512084	1.40072
-0.572033	-2.66754
-0.522056	1.60309
-0.582067	-2.97478
-0.532075	1.82557
-0.592016	-3.27999
-0.542062	2.05263
-0.602073	-3.58291
-0.552065	2.26823
-0.612064	-3.87844
-0.562068	2.4622
-0.622041	-4.14865
-0.572071	2.63224
-0.632082	-4.38589
-0.582071	2.78268
-0.642074	-4.58126
-0.592139	2.87534
-0.652031	-4.74112
-0.602073	2.95132
-0.662003	-4.86038
-0.612053	3.00287
-0.672022	-4.92605
-0.622041	3.01789
-0.682044	-4.94871
-0.632025	3.01127
-0.692024	-4.92402
-0.642089	2.989
-0.702016	-4.8521
-0.652073	2.94674
-0.712125	-4.74761
-0.66203	2.88819
-0.722151	-4.59221
-0.671987	2.81094
-0.732193	-4.4116
-0.682059	2.7109
-0.742131	-4.21114
-0.692089	2.60437
-0.75213	-4.00165
-0.702145	2.47607
-0.762087	-3.78388
-0.712133	2.34485
-0.772113	-3.57718
-0.722094	2.21821
-0.782059	-3.38016
-0.732097	2.09323
-0.792112	-3.20439
-0.742096	1.96162
-0.802046	-3.05815
-0.752138	1.85128
-0.81208	-2.92209
-0.762087	1.74042
-0.822136	-2.81378
-0.772151	1.64929
-0.832132	-2.72774
-0.782116	1.56974
-0.842104	-2.64183
-0.792047	1.50368
-0.852122	-2.58277
-0.802115	1.44565
-0.862095	-2.53759
-0.812114	1.39906
-0.872094	-2.50195
-0.822075	1.35261
-0.882135	-2.47917
-0.83217	1.31862
-0.892108	-2.4723
-0.842112	1.29699
-0.90213	-2.45066
-0.852092	1.28197
-0.912137	-2.4672
-0.862106	1.26428
-0.922083	-2.45613
-0.872067	1.25155
-0.93204	-2.45957
-0.882124	1.24417
-0.942108	-2.46797
-0.892089	1.24328
-0.952027	-2.46491
-0.902126	1.23819
-0.962064	-2.47459
-0.912095	1.23144
-0.97209	-2.48502
-0.922075	1.24111
-0.982066	-2.49215
-0.932051	1.25028
-0.992054	-2.49355
-0.942058	1.24939
-1.00207	-2.49788
-0.952118	1.2541
-1.01212	-2.4947
-0.962091	1.26619
-1.02208	-2.49584
-0.97206	1.25906
-1.03199	-2.49699
-0.982051	1.27179
-1.04206	-2.49991
-0.992008	1.26746
-1.05208	-2.49381
-1.00208	1.27599
-1.06209	-2.50462
-1.01208	1.28146
-1.07201	-2.51811
-1.02209	1.26135
-1.08205	-2.50921
-1.03207	1.27815
-1.09211	-2.51404
-1.04209	1.27064
-1.10202	-2.52919
-1.05203	1.27446
-1.11205	-2.54319
-1.06204	1.27599
-1.12212	-2.56915
-1.07203	1.27942