File: VFSWV_data_prep/Example_data/CoPc(OMe)8_VFSWV_txt_data/CoPc(OMe)8_CNT_VFSWV_scans_09_8_C02.txt
Ewe/V	<I>/mA
-0.122072	-0.651101
-0.0721483	1.40982
-0.132117	-1.59174
-0.0821056	1.3073
-0.142101	-1.61255
-0.0921315	1.28668
-0.152093	-1.61732
-0.102089	1.27771
-0.162103	-1.63469
-0.112092	1.27331
-0.172106	-1.64996
-0.12208	1.26835
-0.18209	-1.66333
-0.132071	1.2779
-0.192009	-1.68013
-0.142067	1.27694
-0.202062	-1.70819
-0.152093	1.28
-0.212092	-1.73931
-0.162157	1.28744
-0.222114	-1.77349
-0.172076	1.29737
-0.232094	-1.8004
-0.182098	1.30901
-0.24204	-1.83439
-0.192128	1.33192
-0.252062	-1.87486
-0.202115	1.35388
-0.262065	-1.90617
-0.212038	1.37603
-0.272091	-1.94206
-0.22206	1.4018
-0.282174	-1.97853
-0.232067	1.4207
-0.292173	-2.00697
-0.242055	1.42624
-0.302161	-2.03657
-0.252062	1.4501
-0.312137	-2.06215
-0.262099	1.45774
-0.322171	-2.08105
-0.272034	1.46709
-0.332121	-2.10358
-0.282121	1.46346
-0.342127	-2.12515
-0.29217	1.47778
-0.352146	-2.14481
-0.302127	1.49382
-0.362099	-2.1641
-0.312134	1.5068
-0.372125	-2.20266
-0.322121	1.5131
-0.382151	-2.22786
-0.332143	1.5152
-0.392104	-2.26318
-0.342139	1.53735
-0.40213	-2.3048
-0.352108	1.54804
-0.412179	-2.34718
-0.362122	1.56522
-0.422117	-2.39128
-0.372068	1.58126
-0.432094	-2.44741
-0.382082	1.61925
-0.442089	-2.50297
-0.392112	1.65533
-0.452085	-2.56292
-0.402119	1.68149
-0.462137	-2.63775
-0.412088	1.72387
-0.472091	-2.71317
-0.422091	1.75537
-0.482101	-2.80729
-0.432082	1.80673
-0.492116	-2.90561
-0.442051	1.8409
-0.502084	-3.02951
-0.45213	1.927
-0.512107	-3.18301
-0.462122	1.99363
-0.522102	-3.35636
-0.472079	2.10379
-0.53209	-3.5593
-0.482105	2.22846
-0.542104	-3.80176
-0.492081	2.36897
-0.552054	-4.06465
-0.502073	2.51578
-0.562087	-4.35694
-0.512084	2.6899
-0.572117	-4.67443
-0.522094	2.86134
-0.582055	-4.98314
-0.532113	3.01369
-0.592093	-5.31609
-0.542051	3.15439
-0.602119	-5.62652
-0.552073	3.28154
-0.612057	-5.92071
-0.562065	3.37547
-0.622102	-6.20575
-0.572049	3.42721
-0.632113	-6.46673
-0.58209	3.46329
-0.642062	-6.67578
-0.592066	3.47742
-0.652069	-6.85467
-0.602092	3.47456
-0.662076	-7.00301
-0.61208	3.45394
-0.672087	-7.12462
-0.622106	3.43866
-0.682059	-7.17483
-0.632071	3.41824
-0.692043	-7.19469
-0.642119	3.38559
-0.702061	-7.16643
-0.652073	3.36153
-0.712148	-7.10954
-0.662099	3.33137
-0.722136	-6.98964
-0.672094	3.31323
-0.732124	-6.83538
-0.682048	3.2676
-0.742123	-6.67005
-0.692104	3.22598
-0.752172	-6.46501
-0.70213	3.16699
-0.762156	-6.24508
-0.712148	3.10743
-0.772117	-6.03049
-0.722113	3.05149
-0.782093	-5.81151
-0.732135	2.96042
-0.792165	-5.62308
-0.742138	2.87394
-0.802119	-5.43522
-0.752138	2.78955
-0.812148	-5.27161
-0.762141	2.70269
-0.822167	-5.14293
-0.772148	2.63854
-0.832212	-5.02094
-0.782139	2.57229
-0.842142	-4.92376
-0.792112	2.50967
-0.852099	-4.84014
-0.80208	2.4566
-0.862125	-4.77141
-0.812171	2.40964
-0.872144	-4.71433
-0.822151	2.37279
-0.882082	-4.67653
-0.832139	2.33155
-0.892146	-4.65152
-0.842138	2.31074
-0.902118	-4.64044
-0.852122	2.2842
-0.912129	-4.61868
-0.862167	2.26416
-0.922105	-4.62326
-0.872155	2.25328
-0.93207	-4.6141
-0.882112	2.24297
-0.942112	-4.62689
-0.892112	2.23094
-0.952088	-4.63033
-0.902134	2.22349
-0.962057	-4.64445
-0.912079	2.21414
-0.972128	-4.64999
-0.922075	2.20688
-0.982082	-4.67443
-0.932124	2.20612
-0.992081	-4.67385
-0.942081	2.2128
-1.00209	-4.69065
-0.952099	2.21357
-1.01209	-4.69657
-0.962098	2.22789
-1.02209	-4.70459
-0.972098	2.23686
-1.03211	-4.70325
-0.982078	2.2359
-1.04208	-4.70364
-0.992085	2.23438
-1.05208	-4.70555
-1.00208	2.24908
-1.06205	-4.70326
-1.01209	2.24946
-1.07205	-4.70115
-1.02208	2.25786
-1.08212	-4.70497
-1.03206	2.25232
-1.0921	-4.7128
-1.04208	2.24106
-1.1021	-4.72273
-1.05208	2.25079
-1.112	-4.72292
-1.06202	2.25404
-1.12217	-4.75289
-1.07207	2.24736