File: VFSWV_data_prep/Example_data/CoPc(OMe)8_VFSWV_txt_data/CoPc(OMe)8_CNT_VFSWV_scans_64_63_C02.txt
Ewe/V	<I>/mA
-0.122064	0.00908017
-0.0720988	0.0117613
-0.132025	0.00424922
-0.0820789	0.01377
-0.142093	0.00443183
-0.0920857	0.010649
-0.152005	0.00571843
-0.102062	0.0134463
-0.162057	0.00475555
-0.112054	0.0127657
-0.17206	0.00438203
-0.12208	0.00917148
-0.182029	0.00343576
-0.132033	0.0126494
-0.192021	0.00457294
-0.142067	0.0115953
-0.202012	0.00354366
-0.152104	0.012666
-0.212046	6.57051e-05
-0.162084	0.00824181
-0.222087	-0.00127899
-0.17203	0.00892246
-0.232048	0.00116139
-0.182052	0.0108482
-0.242066	-0.00548741
-0.192044	0.00857384
-0.252024	-0.00596054
-0.202043	0.00740345
-0.262076	-0.00754596
-0.212088	0.00611686
-0.272003	-0.00643368
-0.222045	0.00626627
-0.282109	-0.000847363
-0.232052	0.00825842
-0.29212	-0.00383559
-0.242059	0.00586784
-0.302153	-0.006691
-0.252031	0.00458124
-0.31216	-0.00913968
-0.262042	0.00283811
-0.322125	-0.00279801
-0.272037	0.00643228
-0.332109	-0.00752936
-0.282121	0.00725404
-0.342085	-0.00638388
-0.292166	0.0040915
-0.352108	-0.010833
-0.3021	0.00527019
-0.362057	-0.0110737
-0.312141	0.00294602
-0.372102	-0.00831792
-0.322087	0.00341085
-0.382143	-0.0110488
-0.33209	0.00338595
-0.392104	-0.00989504
-0.342131	0.0027136
-0.402081	-0.00980373
-0.352096	0.0026223
-0.412053	-0.00919779
-0.36208	0.00173413
-0.422117	-0.0108164
-0.372102	0.00297922
-0.432056	-0.00994484
-0.382098	0.00238988
-0.442066	-0.00981203
-0.392124	0.0039919
-0.452111	-0.00912308
-0.402115	0.0067643
-0.462053	-0.00586924
-0.41208	0.00872325
-0.472056	-0.00621786
-0.422094	0.0110972
-0.482006	-0.00341225
-0.432071	0.00966952
-0.492028	0.00356027
-0.442051	0.0131392
-0.502073	-0.00606015
-0.452084	0.0115206
-0.512072	-0.00425062
-0.462034	0.0119688
-0.522075	-0.0053546
-0.472049	0.0115289
-0.532059	-0.00633407
-0.482078	0.0134961
-0.542043	-0.00606015
-0.492047	0.0114625
-0.552065	-0.00739655
-0.502096	0.0136289
-0.562007	-0.00775348
-0.512049	0.0143511
-0.57201	-0.00719734
-0.52201	0.0121348
-0.581994	-0.00496447
-0.532075	0.0146914
-0.592036	-0.0093306
-0.542005	0.0124834
-0.602012	-0.0103433
-0.552008	0.013687
-0.612023	-0.0105923
-0.562023	0.0138447
-0.622048	-0.0154232
-0.572045	0.0137534
-0.632032	-0.0161205
-0.58204	0.0140605
-0.642009	-0.0163031
-0.592016	0.0135459
-0.652039	-0.0197313
-0.602042	0.0138696
-0.662061	-0.0200384
-0.612042	0.0150981
-0.671995	-0.0207107
-0.622018	0.0162353
-0.682021	-0.0220554
-0.632048	0.0179701
-0.692005	-0.0163363
-0.642016	0.0205184
-0.701996	-0.0198641
-0.651981	0.0154551
-0.712095	-0.019723
-0.662022	0.019265
-0.722087	-0.0234416
-0.672003	0.0122178
-0.73209	-0.0265959
-0.681998	0.0143428
-0.742054	-0.0181791
-0.691997	0.0178456
-0.752073	-0.0154814
-0.70208	0.0180448
-0.762045	-0.0241057
-0.71208	0.0170488
-0.772071	-0.0208104
-0.722083	0.0143843
-0.782082	-0.0214495
-0.732097	0.0162021
-0.79207	-0.0213665
-0.742081	0.0140771
-0.80208	-0.0205447
-0.75205	0.0160942
-0.812076	-0.0256247
-0.762064	0.0158037
-0.822037	-0.0251599
-0.772075	0.0132886
-0.832055	-0.0174652
-0.782063	0.0141685
-0.84202	-0.023782
-0.792043	0.0144922
-0.852027	-0.0232424
-0.802042	0.0131807
-0.862072	-0.0200716
-0.812041	0.0131724
-0.872086	-0.02682
-0.822098	0.0101012
-0.88207	-0.0256994
-0.83212	0.0121099
-0.892073	-0.0163778
-0.842096	0.014127
-0.902054	-0.0213831
-0.852134	0.0162602
-0.912064	-0.0202127
-0.86206	0.0164345
-0.922029	-0.0212752
-0.872098	0.0161274
-0.932074	-0.0247614
-0.882059	0.0147329
-0.942043	-0.0240974
-0.892092	0.0150898
-0.952034	-0.0229021
-0.90205	0.0103419
-0.962057	-0.0236492
-0.912121	0.0142349
-0.972006	-0.0224207
-0.922037	0.0138198
-0.982055	-0.0224373
-0.932051	0.0104913
-0.992069	-0.0266042
-0.94207	0.0114791
-1.00212	-0.0260646
-0.952065	0.0117281
-1.01203	-0.0249441
-0.962091	0.0109395
-1.02207	-0.0189344
-0.972056	0.00875645
-1.03205	-0.0275422
-0.982063	0.0112466
-1.04208	-0.0263303
-0.992069	0.00774378
-1.05208	-0.0287125
-1.00202	0.00732044
-1.06204	-0.0305138
-1.01205	0.00996004
-1.0721	-0.0302233
-1.02208	0.00776868
-1.08205	-0.0322569
-1.03209	0.00842443
-1.09209	-0.0301817
-1.04206	0.00779358
-1.10208	-0.0336929
-1.05201	0.00767737
-1.11203	-0.0398603
-1.06206	0.00390889
-1.12215	-0.0409975
-1.07202	0.00301242