File: VFSWV_data_prep/Example_data/CoPc(OMe)8_VFSWV_txt_data/CoPc(OMe)8_CNT_VFSWV_scans_76_75_C02.txt
Ewe/V	<I>/mA
-0.122068	0.00585029
-0.0720988	0.00427615
-0.13206	0.00975256
-0.0820521	0.00910188
-0.142078	0.00470008
-0.0921467	0.00700182
-0.152054	0.00553562
-0.102093	0.00275972
-0.162057	0.000190484
-0.112057	0.00334969
-0.17206	0.0020015
-0.122102	0.00333307
-0.182075	0.00785364
-0.132132	0.00178054
-0.192059	-0.00418544
-0.142109	-0.00118695
-0.20207	-0.00353847
-0.152085	-0.000544701
-0.212042	-0.00140054
-0.162096	0.00443112
-0.222068	0.00102232
-0.172053	0.00502262
-0.232041	0.000998882
-0.182022	0.00126108
-0.242066	-0.00411248
-0.192074	0.00473846
-0.252062	0.00266306
-0.20202	0.00802315
-0.262011	0.00390525
-0.212076	0.00888214
-0.272057	0.00410756
-0.22203	0.00966222
-0.28214	0.00737318
-0.23206	0.00751162
-0.292139	0.00630691
-0.242044	0.0040256
-0.302161	0.00390266
-0.252031	0.00180581
-0.312118	0.00386463
-0.262019	0.00690319
-0.32211	0.00282327
-0.271995	0.00538538
-0.332113	0.00380423
-0.282102	0.0107502
-0.342047	0.00780509
-0.292112	0.00639995
-0.352081	0.00267445
-0.302134	0.00643635
-0.362088	0.00347807
-0.312088	0.00849233
-0.372026	0.00823811
-0.322114	0.00618941
-0.382109	0.00100153
-0.332082	0.00479449
-0.392043	0.00099934
-0.34207	0.00401309
-0.402104	0.00292546
-0.352062	0.00676373
-0.412111	0.00505541
-0.362072	0.00501881
-0.42211	0.00749108
-0.372121	0.00982802
-0.432086	0.00709217
-0.382094	0.0088469
-0.442062	0.00703167
-0.392124	0.00466388
-0.452085	0.00212256
-0.402069	0.00637834
-0.462049	0.00991755
-0.412027	0.00798553
-0.47203	0.00536317
-0.422064	0.00133938
-0.482048	0.00109208
-0.432033	0.00337283
-0.492043	0.00290075
-0.44204	0.0064242
-0.502081	-0.00115054
-0.452031	-0.00284843
-0.51208	-7.0695e-05
-0.462046	-0.00213664
-0.522049	-0.00563502
-0.472094	-0.00275783
-0.532101	-0.00592386
-0.482071	-0.00352174
-0.542062	-0.00577641
-0.49207	-0.00768779
-0.552027	-0.00947618
-0.502004	-0.00514912
-0.562026	-0.0105013
-0.512095	-0.01239
-0.572087	-0.0125485
-0.522083	-0.00813795
-0.581998	-0.00791272
-0.532044	-0.0136111
-0.592028	-0.0111024
-0.542058	-0.00902455
-0.602042	-0.00771164
-0.552126	-0.00503253
-0.612026	-0.00660698
-0.562103	-0.0055373
-0.622018	-0.00257307
-0.572049	-0.00297691
-0.632048	-0.00762764
-0.582059	-0.00532681
-0.642028	-0.00800942
-0.592032	-0.00604517
-0.652031	-0.00463977
-0.602023	-0.0043791
-0.661897	-0.00530907
-0.61203	-0.00496806
-0.672052	-0.00243895
-0.622033	-0.00535513
-0.682017	-0.00846929
-0.631998	-0.00846619
-0.691993	-0.00932248
-0.642043	-0.00944395
-0.701974	-0.0163175
-0.652065	-0.00955214
-0.712114	-0.0127131
-0.66203	-0.010625
-0.722056	-0.0120492
-0.672029	-0.00746734
-0.732086	-0.00961971
-0.682036	-0.00572445
-0.742127	-0.00565551
-0.692009	-0.00778577
-0.75213	-0.00945803
-0.702134	-0.0099691
-0.762091	-0.00775475
-0.712068	-0.00658751
-0.77209	-0.0131149
-0.722071	-0.0142515
-0.782082	-0.0163235
-0.732101	-0.0152243
-0.792089	-0.0173236
-0.742073	-0.0166076
-0.802054	-0.0112983
-0.752088	-0.0056009
-0.812041	-0.00767864
-0.762049	-0.00761066
-0.822075	-0.00812458
-0.772144	-0.0069643
-0.832097	-0.00620725
-0.78209	-0.00182111
-0.842066	-0.00340531
-0.792047	-1.24802e-05
-0.852122	-0.00279256
-0.802096	-0.00121044
-0.862102	0.00182162
-0.81208	0.00680939
-0.872117	-0.00253646
-0.822071	-0.00538528
-0.882074	-0.00792589
-0.832101	-0.0018838
-0.892077	-0.00766318
-0.842085	-0.00502191
-0.902099	-0.0111561
-0.852141	-0.0101713
-0.91208	-0.0104319
-0.862099	-0.000241882
-0.922071	-0.00434855
-0.872113	0.0022581
-0.932074	-0.00121476
-0.882044	0.00269637
-0.942073	-0.00476515
-0.892039	0.000577396
-0.952065	-0.00350288
-0.90205	0.000982562
-0.962011	0.000731501
-0.912034	0.00374073
-0.972025	-0.00470902
-0.922033	-0.00220517
-0.982032	-0.0120292
-0.932059	-0.00561392
-0.991966	-0.00829094
-0.9421	-0.00569796
-1.00206	-0.0066563
-0.952023	-0.0101063
-1.01213	-0.0130263
-0.962057	-0.00917468
-1.02206	-0.0122272
-0.972063	-0.00497523
-1.03207	-0.0118861
-0.982028	-0.0091
-1.04208	-0.0103659
-0.992043	-0.0037335
-1.05205	-0.00860698
-1.0021	-0.00267903
-1.06205	-0.00796519
-1.01208	-0.0073596
-1.07206	-0.0108622
-1.022	-0.010634
-1.08205	-0.0117841
-1.03202	-0.00791536
-1.09199	-0.0112423
-1.04206	-0.00571621
-1.10206	-0.0176347
-1.05205	-0.0112246
-1.11206	-0.0117165
-1.06203	-0.00790728
-1.12213	-0.00828123
-1.07204	-0.00221448