File: VFSWV_data_prep/Example_data/CoPc(OMe)8_VFSWV_txt_data/CoPc(OMe)8_CNT_VFSWV_scans_63_62_C02.txt
Ewe/V	<I>/mA
-0.122125	0.0121348
-0.0720682	0.0135493
-0.132102	0.00632928
-0.0820559	0.0100261
-0.142078	0.00157378
-0.0921048	0.00995665
-0.152062	0.0023114
-0.102089	0.00991326
-0.162015	0.00225933
-0.112042	0.0166907
-0.172018	0.0029015
-0.122064	0.00825577
-0.182048	-0.000578348
-0.132056	0.0116922
-0.191986	0.000176632
-0.142013	0.0152762
-0.201993	-0.000187841
-0.152043	0.00931448
-0.212034	-0.000725872
-0.162061	0.0125687
-0.222076	-0.0011858
-0.172018	0.0093058
-0.232021	-0.00147217
-0.182037	0.00543545
-0.242063	-0.00462226
-0.192005	0.0114319
-0.252008	-0.00203624
-0.202031	0.00967027
-0.261989	-0.00272179
-0.212046	0.00984383
-0.272014	-0.00398009
-0.222083	0.0100868
-0.28209	-0.00591527
-0.232033	0.00675449
-0.29207	-0.00568096
-0.242028	0.00545281
-0.302092	-0.00825831
-0.251982	0.00513172
-0.312084	-0.00534252
-0.261977	0.00741402
-0.322117	-0.00383257
-0.272037	0.00849008
-0.332021	-0.00496937
-0.282151	0.00716236
-0.342124	-0.00893518
-0.292105	0.00606026
-0.352085	0.00122666
-0.302069	0.0061644
-0.362061	-0.00365033
-0.31216	0.00909753
-0.372076	-0.00575039
-0.322102	0.00842065
-0.382109	-0.00833641
-0.33209	0.00768303
-0.392108	-0.00710414
-0.342135	0.00240686
-0.402065	-0.00913478
-0.352127	0.00426393
-0.412069	-0.00728638
-0.362099	0.00675449
-0.422056	-0.00673099
-0.372076	0.007657
-0.432052	-0.00584584
-0.382098	0.00725781
-0.442005	-0.00850129
-0.392028	0.00493213
-0.452042	-0.00556815
-0.402088	0.00719707
-0.462103	-0.00914345
-0.412046	0.00841198
-0.472056	-0.00919552
-0.42201	0.00612968
-0.482063	-0.00843186
-0.43204	0.00841198
-0.492039	-0.00804136
-0.442101	0.00436807
-0.502035	-0.00921288
-0.452069	0.0044722
-0.512049	-0.00872691
-0.462038	0.00851611
-0.52206	-0.00772028
-0.472056	0.00808222
-0.532078	-0.0108443
-0.482033	0.00678053
-0.54202	-0.0144457
-0.492024	0.00669375
-0.552058	-0.0140291
-0.502065	0.00794337
-0.562007	-0.00864881
-0.51203	0.00691937
-0.57211	-0.0171705
-0.522056	0.0090715
-0.582078	-0.0184635
-0.532052	0.009462
-0.592055	-0.0121634
-0.542039	0.00868099
-0.602058	-0.0172573
-0.552046	0.00742269
-0.612007	-0.0159122
-0.562003	0.00755286
-0.622003	-0.0224814
-0.572037	0.00365648
-0.632059	-0.0210929
-0.58201	0.00430732
-0.642013	-0.027072
-0.592028	0.00988722
-0.652035	-0.0213967
-0.602054	0.012265
-0.662007	-0.0245728
-0.612026	0.00665036
-0.672018	-0.0303783
-0.622052	0.00752683
-0.682048	-0.0288076
-0.632051	0.00574786
-0.692001	-0.0308122
-0.642047	0.00756154
-0.701954	-0.0302482
-0.651993	0.0133931
-0.712099	-0.0282262
-0.662	0.00925373
-0.722129	-0.029337
-0.672064	0.0086376
-0.732097	-0.0317147
-0.68204	0.00671978
-0.742066	-0.0277489
-0.692005	0.00734459
-0.752065	-0.0339016
-0.702115	0.00730988
-0.762072	-0.0297188
-0.712106	0.00612101
-0.772067	-0.0321833
-0.722106	0.00570447
-0.782021	-0.0231323
-0.732113	0.0154411
-0.792074	-0.0333201
-0.742104	0.00627721
-0.802057	-0.0322614
-0.752115	0.0051404
-0.812091	-0.0287469
-0.762083	0.00839462
-0.822094	-0.0298663
-0.772102	0.00888058
-0.832051	-0.0321833
-0.782063	0.00501023
-0.84202	-0.0304477
-0.79202	0.0056524
-0.852134	-0.0356805
-0.802054	0.00666771
-0.862095	-0.0335284
-0.812049	0.00853347
-0.872102	-0.0344656
-0.822071	0.00469783
-0.882093	-0.0349256
-0.832063	0.00508833
-0.892157	-0.0341879
-0.842127	0.00419451
-0.90205	-0.0339276
-0.852092	0.0046284
-0.912114	-0.0335197
-0.86206	0.0125947
-0.922067	-0.0330077
-0.872144	0.00680656
-0.932105	-0.0310552
-0.882044	0.00705822
-0.942062	-0.0336673
-0.892089	0.00592141
-0.952092	-0.0336499
-0.902088	0.00745741
-0.962057	-0.033242
-0.912114	0.00532264
-0.972075	-0.0358367
-0.922037	0.00370854
-0.982021	-0.0318015
-0.932089	0.00440278
-0.992043	-0.0348822
-0.942024	0.00337878
-1.00204	-0.0344569
-0.952084	0.00402963
-1.01208	-0.0350644
-0.962068	0.00445485
-1.02209	-0.0365396
-0.971995	0.00358705
-1.03206	-0.0345264
-0.982078	0.00641606
-1.04208	-0.0348041
-0.992066	0.0065549
-1.05206	-0.0271154
-1.00208	0.0082471
-1.06202	-0.0357152
-1.01207	0.00378665
-1.07206	-0.0342313
-1.02209	0.00762229
-1.08204	-0.0412778
-1.03208	0.0102691
-1.092	-0.0308816
-1.04207	0.00787394
-1.10207	-0.0389781
-1.05205	0.00779584
-1.11201	-0.0412778
-1.06205	0.00536603
-1.12214	-0.0412778
-1.07203	0.00475857