File: VFSWV_data_prep/Example_data/CoPc(OMe)8_VFSWV_txt_data/CoPc(OMe)8_CNT_VFSWV_scans_07_6_C02.txt
Ewe/V	<I>/mA
-0.122061	-1.04744
-0.0720987	2.16851
-0.13214	-2.48388
-0.0820941	1.94972
-0.142044	-2.53218
-0.0921048	1.92624
-0.152096	-2.54001
-0.102081	1.91116
-0.162099	-2.55528
-0.112096	1.89627
-0.172102	-2.56444
-0.122118	1.89837
-0.182147	-2.58506
-0.13206	1.90619
-0.192051	-2.60167
-0.142128	1.91154
-0.202047	-2.63184
-0.15205	1.91326
-0.212084	-2.66143
-0.162088	1.91879
-0.222068	-2.70267
-0.172049	1.93999
-0.232109	-2.73245
-0.182056	1.95927
-0.242051	-2.78724
-0.192005	1.96404
-0.25205	-2.82924
-0.202085	1.98695
-0.262054	-2.85234
-0.212095	2.01692
-0.272053	-2.89434
-0.222064	2.03182
-0.28217	-2.93272
-0.232021	2.05664
-0.292162	-2.96708
-0.242021	2.06637
-0.302169	-2.99877
-0.252035	2.0889
-0.312172	-3.02626
-0.262073	2.0889
-0.322163	-3.05376
-0.272072	2.10398
-0.332143	-3.08087
-0.282113	2.09997
-0.342127	-3.10912
-0.292131	2.11467
-0.352119	-3.12554
-0.302142	2.10837
-0.362156	-3.16277
-0.312134	2.12097
-0.372098	-3.18415
-0.322121	2.13567
-0.382147	-3.20649
-0.332121	2.15076
-0.39215	-3.24524
-0.342097	2.16507
-0.402111	-3.28724
-0.352119	2.17424
-0.412103	-3.3407
-0.362095	2.18665
-0.42211	-3.38996
-0.372095	2.20994
-0.432098	-3.44666
-0.382052	2.24144
-0.442036	-3.51176
-0.392112	2.26931
-0.452069	-3.57743
-0.402073	2.30005
-0.462068	-3.64616
-0.412095	2.32411
-0.47211	-3.73169
-0.42214	2.37088
-0.482117	-3.82123
-0.432078	2.41479
-0.492108	-3.92814
-0.442093	2.46176
-0.502096	-4.06197
-0.452115	2.53087
-0.512095	-4.20344
-0.46213	2.59215
-0.522098	-4.37851
-0.472094	2.68436
-0.532086	-4.57992
-0.48209	2.79223
-0.542108	-4.81246
-0.492112	2.91059
-0.552111	-5.07573
-0.502027	3.02953
-0.562053	-5.35313
-0.512011	3.15153
-0.572052	-5.65897
-0.52203	3.27028
-0.582052	-5.96253
-0.532055	3.37872
-0.592165	-6.28994
-0.542089	3.46043
-0.602111	-6.59159
-0.552077	3.5093
-0.612064	-6.894
-0.562068	3.53393
-0.622041	-7.18189
-0.572037	3.54462
-0.632082	-7.42378
-0.582094	3.51751
-0.642043	-7.66319
-0.592036	3.49021
-0.652061	-7.85907
-0.602058	3.44458
-0.662106	-8.03318
-0.612106	3.39762
-0.672087	-8.14983
-0.622094	3.34588
-0.682006	-8.24853
-0.632032	3.30388
-0.692001	-8.29263
-0.642039	3.2718
-0.702077	-8.28901
-0.65205	3.23839
-0.712122	-8.24128
-0.662049	3.23591
-0.722098	-8.14811
-0.67206	3.23209
-0.732101	-8.01581
-0.681987	3.21338
-0.742127	-7.85506
-0.692032	3.2025
-0.752092	-7.6609
-0.70213	3.17997
-0.762133	-7.46311
-0.712129	3.16241
-0.772113	-7.24757
-0.72209	3.13702
-0.782105	-7.03584
-0.732109	3.10762
-0.792116	-6.83233
-0.742077	3.05588
-0.802065	-6.64886
-0.752088	3.00051
-0.812102	-6.48067
-0.762114	2.94171
-0.822151	-6.34302
-0.772102	2.90582
-0.832097	-6.21224
-0.782124	2.84645
-0.842176	-6.12003
-0.792096	2.80712
-0.852164	-6.02896
-0.802107	2.76512
-0.862118	-5.95012
-0.812099	2.72827
-0.872117	-5.88921
-0.822094	2.69276
-0.882124	-5.8432
-0.83212	2.66718
-0.892146	-5.8159
-0.842138	2.64866
-0.90208	-5.79987
-0.852099	2.6248
-0.912121	-5.77963
-0.862137	2.6015
-0.922079	-5.776
-0.872086	2.58279
-0.93204	-5.77467
-0.882063	2.57268
-0.942066	-5.78975
-0.892096	2.55435
-0.952042	-5.78918
-0.902107	2.53984
-0.962106	-5.81304
-0.912118	2.53335
-0.972086	-5.8201
-0.922082	2.52857
-0.982066	-5.83289
-0.932059	2.52056
-0.992054	-5.85638
-0.942031	2.51846
-1.00213	-5.8621
-0.952053	2.51464
-1.01208	-5.86936
-0.962064	2.53144
-1.02206	-5.87757
-0.97204	2.52781
-1.03205	-5.89112
-0.982051	2.55168
-1.0421	-5.88043
-0.992069	2.5469
-1.05213	-5.88234
-1.00211	2.55836
-1.06206	-5.87089
-1.01212	2.55893
-1.07206	-5.87337
-1.02209	2.56599
-1.08207	-5.87528
-1.0321	2.56733
-1.09202	-5.87852
-1.0421	2.55989
-1.1021	-5.88673
-1.05209	2.56542
-1.11206	-5.89341
-1.06208	2.56008
-1.12214	-5.91671
-1.07205	2.5574