File: VFSWV_data_prep/Example_data/CoPc(OMe)8_VFSWV_txt_data/CoPc(OMe)8_CNT_VFSWV_scans_72_71_C02.txt
Ewe/V	<I>/mA
-0.122049	0.0234144
-0.0720873	0.0277211
-0.132033	0.0244505
-0.0820864	0.0258894
-0.142086	0.0235605
-0.09204	0.0252417
-0.152009	0.0228303
-0.102035	0.0301112
-0.162061	0.018417
-0.112084	0.0220026
-0.172053	0.0199475
-0.122018	0.0246735
-0.182018	0.022165
-0.132025	0.0270667
-0.192005	0.0256001
-0.142036	0.025636
-0.202008	0.0237882
-0.152035	0.0259407
-0.212023	0.0216988
-0.161989	0.0277123
-0.221988	0.0251102
-0.172015	0.0275911
-0.232075	0.0216472
-0.182022	0.0308454
-0.242032	0.0205906
-0.192005	0.0268073
-0.251993	0.0267525
-0.202024	0.0276405
-0.262	0.0248296
-0.212011	0.0312548
-0.271976	0.0267811
-0.222015	0.0344958
-0.282082	0.0252179
-0.232041	0.0288483
-0.292055	0.0222533
-0.241975	0.0251414
-0.302127	0.0209686
-0.251955	0.0240185
-0.312084	0.0212936
-0.262023	0.0207992
-0.32211	0.0174776
-0.271992	0.0195889
-0.332067	0.0182236
-0.282109	0.0207503
-0.34207	0.015143
-0.292082	0.0190207
-0.352081	0.0129696
-0.302062	0.0176159
-0.362065	0.0168732
-0.312092	0.0174233
-0.372053	0.0167668
-0.322049	0.0197067
-0.382044	0.01641
-0.332079	0.0273449
-0.391994	0.0201457
-0.342097	0.0260786
-0.402046	0.0221344
-0.352066	0.0239938
-0.41203	0.0188395
-0.362015	0.0205706
-0.422056	0.0166009
-0.37206	0.020972
-0.432044	0.0171264
-0.382052	0.0200062
-0.442085	0.0160305
-0.392047	0.0208201
-0.452039	0.0200581
-0.402012	0.0247088
-0.462015	0.0197202
-0.412061	0.0229439
-0.472064	0.0199627
-0.422041	0.0243325
-0.482033	0.0211249
-0.432067	0.0232176
-0.49199	0.018849
-0.44202	0.0224095
-0.502054	0.0173334
-0.452012	0.021184
-0.511996	0.0163703
-0.462015	0.0230223
-0.521995	0.0157037
-0.472007	0.0241661
-0.532063	0.0162936
-0.481998	0.018905
-0.542039	0.0143113
-0.492043	0.0184208
-0.552023	0.0127834
-0.502031	0.0193399
-0.561973	0.0150022
-0.512076	0.0217784
-0.572029	0.0150558
-0.522018	0.020897
-0.582067	0.0159081
-0.532006	0.0219416
-0.592013	0.0184791
-0.542017	0.0229174
-0.602027	0.0158069
-0.552042	0.0227584
-0.612019	0.0147028
-0.562045	0.0215881
-0.622064	0.0127382
-0.572022	0.0196563
-0.631998	0.0126786
-0.582006	0.0211506
-0.642016	0.0114991
-0.592009	0.0146948
-0.65197	0.0129781
-0.602088	0.0151112
-0.661984	0.00999588
-0.611996	0.0191318
-0.671961	0.0127517
-0.62198	0.0180323
-0.682017	0.00884052
-0.632013	0.0168369
-0.692032	0.00626137
-0.64197	0.0147226
-0.701958	0.00843058
-0.651958	0.0189204
-0.712022	0.00896191
-0.661957	0.0146838
-0.722094	0.0124804
-0.672026	0.025444
-0.73209	0.00912338
-0.682021	0.0190112
-0.742131	0.0104239
-0.692005	0.0149574
-0.752054	0.00715971
-0.702084	0.0133828
-0.762053	0.00366836
-0.712095	0.0120369
-0.772117	0.00474565
-0.722094	0.0117333
-0.782029	0.0057251
-0.732074	0.0117238
-0.792085	0.00383629
-0.742058	0.00700014
-0.802073	-0.000741095
-0.75205	0.00740648
-0.812083	-0.0168786
-0.762068	-0.0113179
-0.822067	-0.020305
-0.772064	-0.0139978
-0.832067	-0.019172
-0.78207	-0.0110432
-0.842108	-0.0143851
-0.792016	-0.0106489
-0.852118	-0.0156533
-0.802057	-0.0129032
-0.862114	-0.0174528
-0.812091	-0.0104582
-0.872113	-0.014962
-0.822086	-0.00800021
-0.88207	-0.0168734
-0.832086	-0.00219622
-0.892093	-0.0117533
-0.842115	-0.00377217
-0.902073	-0.0172201
-0.852126	-0.00599665
-0.912106	-0.0145327
-0.862003	-0.00573906
-0.922067	-0.0129856
-0.872048	-0.00517505
-0.932063	-0.0108506
-0.882097	-0.0072318
-0.942089	-0.0135498
-0.892112	-0.00357612
-0.952042	-0.0159802
-0.902027	-0.00405502
-0.962057	-0.0129849
-0.912064	-0.0016307
-0.972079	-0.00522255
-0.922044	-0.00391711
-0.982051	-0.0119577
-0.932108	-0.00446953
-0.992104	-0.0114944
-0.942058	-0.00180262
-1.00205	-0.0131355
-0.952031	-0.00712048
-1.01206	-0.0130819
-0.962091	-0.0043111
-1.0221	-0.0177268
-0.972014	-0.00875455
-1.03202	-0.01386
-0.982063	-0.0114312
-1.04205	-0.0133145
-0.992066	-0.00877469
-1.05203	-0.0187142
-1.00204	-0.0099859
-1.06204	-0.0228387
-1.01205	-0.0115387
-1.072	-0.0205941
-1.02203	-0.00815636
-1.08205	-0.0199176
-1.03202	-0.00483521
-1.09206	-0.017173
-1.04202	-0.00599361
-1.10208	-0.015863
-1.05205	-0.00715163
-1.112	-0.0160028
-1.06207	-0.0109154
-1.1221	-0.0225973
-1.07203	-0.00781556