File: VFSWV_data_prep/Example_data/CoPc(OMe)8_VFSWV_txt_data/CoPc(OMe)8_CNT_VFSWV_scans_20_19_C02.txt
Ewe/V	<I>/mA
-0.12208	-0.0886679
-0.072114	0.225768
-0.132056	-0.251709
-0.0820941	0.211545
-0.142082	-0.254954
-0.0920323	0.196749
-0.152051	-0.262782
-0.102108	0.194362
-0.16208	-0.267459
-0.112126	0.19694
-0.172045	-0.273473
-0.122064	0.187776
-0.18206	-0.287601
-0.132056	0.189971
-0.192059	-0.291801
-0.142109	0.196367
-0.202024	-0.298101
-0.15207	0.192931
-0.212061	-0.31261
-0.16205	0.198085
-0.222064	-0.324065
-0.172087	0.201235
-0.232029	-0.338193
-0.182063	0.211354
-0.242059	-0.351079
-0.192089	0.210686
-0.25202	-0.351461
-0.202047	0.219754
-0.262042	-0.368357
-0.212046	0.226054
-0.27203	-0.392508
-0.22206	0.224145
-0.28214	-0.401863
-0.23206	0.228918
-0.292128	-0.411504
-0.242051	0.236268
-0.302184	-0.419999
-0.25207	0.245527
-0.312088	-0.421718
-0.262008	0.250491
-0.322137	-0.437277
-0.272083	0.256887
-0.332113	-0.452169
-0.282143	0.252687
-0.342101	-0.463528
-0.292158	0.257937
-0.352104	-0.475651
-0.302157	0.268246
-0.362095	-0.482142
-0.312141	0.272065
-0.372091	-0.493406
-0.32214	0.269869
-0.382132	-0.511161
-0.332121	0.277315
-0.392085	-0.520707
-0.342135	0.288006
-0.402119	-0.530443
-0.352134	0.29192
-0.412095	-0.552971
-0.362114	0.296979
-0.422087	-0.570249
-0.372098	0.307861
-0.432082	-0.599172
-0.382109	0.309197
-0.44212	-0.627523
-0.392101	0.319602
-0.452023	-0.652724
-0.402115	0.334207
-0.46211	-0.685466
-0.412137	0.347476
-0.472041	-0.717062
-0.422079	0.371435
-0.482059	-0.767654
-0.43209	0.387377
-0.492081	-0.814524
-0.442082	0.409523
-0.50205	-0.894612
-0.452119	0.443028
-0.512065	-0.969928
-0.462088	0.479397
-0.522106	-1.08018
-0.472052	0.535908
-0.532055	-1.21373
-0.482025	0.596141
-0.542055	-1.36712
-0.492055	0.688353
-0.552027	-1.55899
-0.502084	0.809106
-0.562076	-1.77434
-0.51208	0.957828
-0.572049	-2.01977
-0.522003	1.13385
-0.582025	-2.28542
-0.532059	1.34109
-0.592074	-2.56798
-0.542055	1.55959
-0.601985	-2.86103
-0.552042	1.78411
-0.611984	-3.13308
-0.562042	1.99201
-0.622037	-3.38499
-0.572045	2.1834
-0.632074	-3.61247
-0.582017	2.35303
-0.642013	-3.79708
-0.59207	2.47903
-0.651981	-3.94485
-0.602012	2.57067
-0.662057	-4.0531
-0.612068	2.63759
-0.671991	-4.1077
-0.622033	2.66622
-0.682009	-4.12116
-0.632032	2.66202
-0.691993	-4.07849
-0.642024	2.64809
-0.702035	-4.00098
-0.651974	2.59454
-0.712122	-3.88337
-0.662011	2.52867
-0.722102	-3.7274
-0.672052	2.44419
-0.732097	-3.53591
-0.682017	2.32735
-0.742108	-3.34662
-0.69199	2.2108
-0.752126	-3.14501
-0.702142	2.06475
-0.762049	-2.9393
-0.712152	1.94323
-0.772094	-2.74896
-0.722121	1.79671
-0.782105	-2.57218
-0.73212	1.66832
-0.792077	-2.43109
-0.742108	1.53668
-0.802103	-2.29659
-0.752107	1.4333
-0.812091	-2.18242
-0.76208	1.3262
-0.822094	-2.09289
-0.772075	1.24716
-0.832132	-2.02521
-0.782063	1.17986
-0.84202	-1.95104
-0.792054	1.114
-0.852164	-1.90474
-0.802046	1.06102
-0.86208	-1.87839
-0.812068	1.02283
-0.872067	-1.84661
-0.822117	0.984556
-0.88207	-1.83076
-0.832051	0.959928
-0.89202	-1.82618
-0.842096	0.934537
-0.902126	-1.82121
-0.852042	0.928046
-0.912068	-1.82198
-0.862064	0.912009
-0.922067	-1.82255
-0.872132	0.90065
-0.932086	-1.82351
-0.881998	0.892822
-0.94205	-1.83725
-0.892081	0.894827
-0.95208	-1.83534
-0.902084	0.886426
-0.962068	-1.83515
-0.912091	0.8996
-0.972029	-1.83716
-0.922052	0.899218
-0.982051	-1.84451
-0.932067	0.902272
-0.992047	-1.84517
-0.942054	0.905613
-1.00205	-1.84718
-0.952053	0.912486
-1.01205	-1.84212
-0.962041	0.917927
-1.02204	-1.84708
-0.971999	0.915636
-1.03204	-1.84957
-0.981994	0.919932
-1.04205	-1.84288
-0.992081	0.918214
-1.05205	-1.84489
-1.00202	0.924323
-1.06203	-1.8552
-1.01206	0.925659
-1.07209	-1.85892
-1.02205	0.918595
-1.08204	-1.86102
-1.03207	0.921555
-1.09203	-1.8573
-1.04211	0.9248
-1.10209	-1.88403
-1.05205	0.91955
-1.11201	-1.89873
-1.06202	0.925659
-1.12212	-1.91524
-1.07199	0.93005