File: VFSWV_data_prep/Example_data/CoPc(OMe)8_VFSWV_txt_data/CoPc(OMe)8_CNT_VFSWV_scans_37_36_C02.txt
Ewe/V	<I>/mA
-0.122057	-0.0111567
-0.0721026	0.0457357
-0.132048	-0.0255026
-0.0821056	0.0428993
-0.142074	-0.0344483
-0.0920475	0.0440993
-0.152039	-0.0336301
-0.102051	0.0365173
-0.162038	-0.0451395
-0.112046	0.0343899
-0.17206	-0.037012
-0.122064	0.0395174
-0.182037	-0.0408303
-0.132083	0.0397355
-0.192002	-0.0320482
-0.142067	0.0329172
-0.201986	-0.042903
-0.152066	0.0342263
-0.212034	-0.0491214
-0.16205	0.0394083
-0.222041	-0.0467213
-0.172038	0.0331899
-0.232086	-0.0546852
-0.182021	0.0302444
-0.242021	-0.0561034
-0.192028	0.0342263
-0.252054	-0.0590489
-0.202024	0.0321535
-0.262038	-0.0637945
-0.21205	0.0290989
-0.271999	-0.0648855
-0.222003	0.0373355
-0.282132	-0.0742675
-0.232071	0.0368991
-0.292085	-0.0730129
-0.24204	0.0371173
-0.302085	-0.075413
-0.252031	0.0352082
-0.312092	-0.0763949
-0.262046	0.0336808
-0.322152	-0.0779767
-0.272007	0.0302444
-0.332109	-0.0821768
-0.28209	0.0374446
-0.342078	-0.0890497
-0.292147	0.034499
-0.352127	-0.0921044
-0.302161	0.0396264
-0.362092	-0.0828859
-0.312103	0.0404992
-0.372125	-0.0876861
-0.322121	0.0414265
-0.382082	-0.0952681
-0.332071	0.0340627
-0.39207	-0.0917225
-0.342078	0.0291534
-0.402069	-0.0989227
-0.352134	0.0402265
-0.412088	-0.102796
-0.362103	0.0382628
-0.422075	-0.109996
-0.372091	0.0364082
-0.432067	-0.107105
-0.382124	0.038481
-0.442062	-0.114032
-0.392101	0.0368446
-0.452058	-0.115505
-0.402146	0.0420811
-0.462065	-0.11916
-0.41205	0.0400628
-0.472072	-0.123905
-0.422098	0.0420811
-0.482105	-0.129414
-0.432086	0.0430629
-0.492089	-0.133996
-0.442059	0.0484085
-0.502069	-0.13656
-0.452039	0.0455721
-0.512065	-0.14807
-0.462076	0.0526086
-0.522083	-0.166615
-0.472056	0.0532632
-0.532086	-0.176979
-0.482029	0.0599179
-0.542066	-0.205562
-0.492081	0.0663544
-0.552077	-0.235399
-0.5021	0.0720819
-0.56208	-0.2738
-0.512046	0.0833185
-0.572037	-0.320983
-0.52211	0.105846
-0.582078	-0.392658
-0.532048	0.127447
-0.592047	-0.468751
-0.541986	0.161702
-0.602042	-0.555153
-0.552046	0.212486
-0.61203	-0.644174
-0.562053	0.280833
-0.622006	-0.732922
-0.572007	0.357308
-0.632052	-0.829088
-0.582025	0.435801
-0.64202	-0.899726
-0.592058	0.510639
-0.652016	-0.956618
-0.602073	0.581714
-0.662038	-0.985037
-0.612045	0.637461
-0.672029	-0.988201
-0.622033	0.674443
-0.682006	-0.977019
-0.632032	0.696099
-0.691978	-0.942545
-0.642001	0.692008
-0.701996	-0.881617
-0.651989	0.671716
-0.712106	-0.820088
-0.662023	0.624751
-0.722075	-0.751904
-0.671987	0.585914
-0.732082	-0.681484
-0.682002	0.533385
-0.742051	-0.612755
-0.692035	0.472784
-0.752107	-0.571899
-0.702061	0.407545
-0.762125	-0.526516
-0.712145	0.355889
-0.772102	-0.493952
-0.722102	0.317379
-0.782074	-0.457241
-0.73212	0.274178
-0.792035	-0.436677
-0.742104	0.243741
-0.80205	-0.417149
-0.752103	0.21434
-0.812061	-0.411586
-0.762125	0.193231
-0.822083	-0.398931
-0.772075	0.176648
-0.832089	-0.389385
-0.782116	0.161048
-0.842108	-0.38033
-0.792066	0.147957
-0.85205	-0.390694
-0.802069	0.148011
-0.862057	-0.386549
-0.812102	0.139229
-0.87214	-0.389658
-0.822102	0.132956
-0.882021	-0.387858
-0.832082	0.125701
-0.892073	-0.38273
-0.842054	0.12052
-0.902057	-0.387312
-0.852061	0.127665
-0.912087	-0.390312
-0.862087	0.120901
-0.922044	-0.392822
-0.872075	0.122865
-0.932108	-0.39124
-0.882055	0.118556
-0.942089	-0.391131
-0.892043	0.120192
-0.952034	-0.389549
-0.902054	0.116647
-0.962037	-0.391458
-0.912079	0.124229
-0.972063	-0.389821
-0.922071	0.126138
-0.982055	-0.390967
-0.932059	0.124883
-0.992069	-0.382403
-0.942096	0.12101
-1.00204	-0.38813
-0.952046	0.119374
-1.01208	-0.39184
-0.962014	0.119974
-1.02201	-0.392222
-0.972063	0.121174
-1.03206	-0.397403
-0.982066	0.12172
-1.04204	-0.394567
-0.992058	0.119483
-1.05208	-0.394785
-1.00205	0.121829
-1.06197	-0.393476
-1.01206	0.121883
-1.07205	-0.405586
-1.02201	0.122374
-1.08201	-0.399476
-1.03199	0.125647
-1.09204	-0.40924
-1.04201	0.110047
-1.10199	-0.412731
-1.0521	0.118229
-1.11201	-0.421895
-1.06203	0.120083
-1.12212	-0.42975
-1.07199	0.117847