File: VFSWV_data_prep/Example_data/CoPc(OMe)8_VFSWV_txt_data/CoPc(OMe)8_CNT_VFSWV_scans_74_73_C02.txt
Ewe/V	<I>/mA
-0.122038	-0.00949921
-0.0720453	-0.00143877
-0.132044	-0.00093732
-0.0820636	-0.000592659
-0.142059	-0.00202309
-0.0920208	-0.00307353
-0.152066	-0.00452316
-0.102077	-0.0056987
-0.162023	-0.00567758
-0.112027	-0.00226336
-0.172026	0.000453104
-0.122061	-0.000177014
-0.181999	-0.000869383
-0.131995	-0.00281265
-0.192025	-0.00204635
-0.142044	-0.00624849
-0.20202	-0.00319965
-0.152043	-0.00411635
-0.212065	-0.0102752
-0.162073	-0.00608053
-0.221988	-0.00947129
-0.172045	-0.00509884
-0.232033	-0.00988074
-0.182067	-0.00375188
-0.242005	-0.00353223
-0.192017	-0.0014209
-0.251993	-0.00639584
-0.202024	-0.00498186
-0.262031	-0.00472697
-0.212	-0.00332365
-0.271973	-0.00692248
-0.222026	-0.00386816
-0.282159	-0.00839171
-0.232056	-0.00687739
-0.292112	-0.00745816
-0.242013	-0.00422094
-0.302104	-0.00626545
-0.251997	-0.0047619
-0.312065	-0.00698727
-0.262	-0.00169763
-0.322091	-0.00479277
-0.271984	-0.00240513
-0.332121	0.00245232
-0.282109	0.0066108
-0.342013	0.00464875
-0.292108	0.00455258
-0.352062	0.00205069
-0.302104	0.00480321
-0.362061	0.00370149
-0.312115	0.00484708
-0.372091	0.0023462
-0.322064	0.00844032
-0.382101	0.00715754
-0.332166	0.00780157
-0.392082	0.00785093
-0.342162	0.00367986
-0.40213	0.000416343
-0.352092	0.0010226
-0.412046	0.0039837
-0.362072	-0.000702536
-0.422018	-0.0048075
-0.372068	0.00133497
-0.432063	-0.00805791
-0.382109	-0.00445999
-0.442059	-0.00724368
-0.392066	-0.00314695
-0.452035	-0.0071858
-0.402069	-0.0076836
-0.462027	-0.0100289
-0.412088	-0.0100487
-0.472026	-0.0127859
-0.422026	-0.0100151
-0.482044	-0.0116168
-0.432029	-0.0104607
-0.492055	-0.0139403
-0.442047	-0.00917039
-0.502062	-0.00949546
-0.452077	-0.00563472
-0.512038	-0.00957152
-0.462065	-0.00883762
-0.522022	-0.00644977
-0.472052	-0.00948419
-0.532048	-0.00258324
-0.482044	-0.00406354
-0.542047	-0.00680164
-0.492024	-0.0035958
-0.552004	-0.00826416
-0.502054	-0.0028617
-0.562011	-0.00300468
-0.512068	-0.00394808
-0.572068	-0.00386085
-0.522049	-0.00197994
-0.581975	-0.00207285
-0.532063	-0.00438576
-0.591986	-0.00816251
-0.542032	-0.00122938
-0.602	-0.00401835
-0.552058	0.00256007
-0.611977	-0.00411919
-0.562011	-0.0026653
-0.622045	-0.00552962
-0.572056	-0.00242523
-0.632002	-0.00974212
-0.582025	-0.00555359
-0.642009	-0.0086598
-0.592043	-0.00792427
-0.651985	-0.0143791
-0.601989	-0.00954908
-0.661954	-0.0134351
-0.612019	-0.00823156
-0.671987	-0.0129818
-0.622052	-0.0106139
-0.681994	-0.00742749
-0.632071	-0.00242371
-0.691974	-0.00412447
-0.642024	-0.000216822
-0.702	0.00218047
-0.651993	0.00470551
-0.712095	-0.00137612
-0.662011	0.0039187
-0.722087	8.32585e-05
-0.672003	0.00250726
-0.732082	-0.00337757
-0.681983	0.00337907
-0.742089	-0.0011981
-0.692032	-0.000146549
-0.752077	-0.00261726
-0.702092	0.000887738
-0.762026	-0.00495535
-0.712049	5.15749e-05
-0.772033	-0.00460815
-0.722056	-0.00124928
-0.782002	-0.00596385
-0.732078	-0.00190479
-0.792043	-0.00462999
-0.742032	0.00509303
-0.802042	-0.00209824
-0.752084	0.00348752
-0.812068	-0.00504969
-0.762053	0.00792811
-0.822079	-0.0012898
-0.772037	0.00376922
-0.832063	-5.35297e-05
-0.782101	0.000178208
-0.84207	-0.00611475
-0.792108	-0.00500004
-0.852122	-0.00828528
-0.802027	-0.00533952
-0.862045	-0.00684551
-0.812057	-0.000134363
-0.87206	-0.00749634
-0.822083	-0.00112468
-0.881994	-0.00474332
-0.832128	-0.000450895
-0.892123	-0.00384612
-0.842077	0.00394531
-0.902057	0.00288279
-0.852103	-0.0026721
-0.912022	-0.00487787
-0.862079	-0.00457251
-0.92209	-0.00548453
-0.872105	0.00201078
-0.932051	-0.00843578
-0.882063	0.00316632
-0.942058	-0.00423922
-0.892058	-0.000781949
-0.952065	-0.0121723
-0.902038	-0.00417545
-0.962034	-0.00713025
-0.912053	0.000222991
-0.972006	-0.00621011
-0.922098	0.00307838
-0.982028	-0.00595065
-0.932051	-0.00221309
-0.992031	-0.00704993
-0.94205	-0.00266195
-1.00202	-0.00410518
-0.952023	-0.00431437
-1.01205	-0.00834093
-0.962057	-0.00202756
-1.02208	-0.00927276
-0.972063	-0.000929501
-1.03204	-0.00434544
-0.981998	-0.0059934
-1.04206	-0.0120362
-0.992058	-0.00798368
-1.05204	-0.00875597
-1.00202	-0.00288586
-1.06209	-0.00810666
-1.01211	-0.00555673
-1.07202	-0.00982387
-1.02209	-0.00872144
-1.08204	-0.0146125
-1.03208	-0.00722723
-1.09201	-0.0148917
-1.04204	-0.0029997
-1.10205	-0.00836642
-1.05202	-1.2808e-05
-1.11207	-0.00316066
-1.06203	0.00670158
-1.12213	-0.00166422
-1.072	0.00381726