File: VFSWV_data_prep/Example_data/CoPc(OMe)8_VFSWV_txt_data/CoPc(OMe)8_CNT_VFSWV_scans_75_74_C02.txt
Ewe/V	<I>/mA
-0.122099	0.00707214
-0.0721178	0.00775303
-0.132048	0.00535536
-0.0820521	0.00411834
-0.142063	0.00534843
-0.0920972	0.00502292
-0.152039	-0.000825154
-0.102024	7.88117e-05
-0.162061	-0.00165527
-0.112046	0.000488763
-0.172072	-0.0036564
-0.12208	0.0013534
-0.182048	-0.00365007
-0.132033	-0.00224531
-0.192044	-0.00447051
-0.142063	0.000614439
-0.202005	-0.00466249
-0.152028	0.00108932
-0.21208	-0.00978402
-0.16205	-0.00532364
-0.222072	-0.00778769
-0.172011	-0.00883654
-0.232063	-0.0153198
-0.182105	-0.010357
-0.242028	-0.0144551
-0.192021	-0.00924474
-0.252039	-0.0112423
-0.202028	-0.00889423
-0.262053	-0.0106362
-0.212008	-0.00947071
-0.272026	-0.0109182
-0.222064	-0.00393519
-0.282124	-0.0141268
-0.232056	-0.00911784
-0.292147	-0.0136398
-0.242028	-0.0118859
-0.302092	-0.0104004
-0.252005	-0.00249102
-0.312126	-0.00842766
-0.262015	-0.00533957
-0.322102	-0.00727036
-0.272018	-0.0133091
-0.332071	-0.0139122
-0.282117	-0.010954
-0.34207	-0.0100762
-0.292139	-0.00978943
-0.352096	-0.00903157
-0.302134	-0.00875027
-0.362069	-0.0106404
-0.312111	-0.00453857
-0.372068	-0.00384449
-0.32214	-0.00468528
-0.382117	-0.0106564
-0.332063	-0.0085909
-0.392074	-0.00792206
-0.342112	-0.00439011
-0.402088	-0.00490279
-0.352111	-0.00578359
-0.412072	-0.0039124
-0.362141	-0.00365648
-0.422075	-0.00586575
-0.372125	-0.0044904
-0.43209	-0.00381454
-0.382075	-0.00598152
-0.442104	-0.00732249
-0.392089	-0.00634673
-0.452104	-0.00568337
-0.402062	0.00015533
-0.462118	0.000879966
-0.412069	-0.00164079
-0.472083	-0.00737584
-0.422114	-0.00135293
-0.482071	-0.00317374
-0.432048	0.000364078
-0.492001	-0.000873321
-0.442093	-0.0025238
-0.502027	-0.00547401
-0.452046	4.4211e-05
-0.512049	-0.00246077
-0.462069	0.00242366
-0.521984	-0.0017737
-0.472075	-0.00234119
-0.532025	-0.00530779
-0.482021	-0.00422853
-0.542028	-0.00451738
-0.492104	-0.00402748
-0.552039	-0.00570128
-0.502054	-0.00602724
-0.562034	-0.00394624
-0.512023	-0.0062917
-0.572056	-0.00440878
-0.522018	-0.00291302
-0.582036	-0.00629506
-0.532063	-0.00274519
-0.592016	-0.00545252
-0.542009	-0.00571789
-0.602027	-0.00678846
-0.552042	-0.00325613
-0.611984	-0.00316886
-0.562061	-0.0027503
-0.622026	-0.00474374
-0.571991	-0.00469702
-0.632052	-0.00337449
-0.582067	-0.00161396
-0.642032	-0.00392505
-0.592028	-0.0024094
-0.652039	0.00221591
-0.601997	0.00361427
-0.661996	-0.00390234
-0.612072	0.000548438
-0.671991	-0.000415507
-0.622003	0.00384596
-0.682017	0.00109755
-0.632067	0.00436344
-0.692009	-0.00258416
-0.641993	0.000120272
-0.70205	0.000835762
-0.651974	0.00362288
-0.712137	-0.00507694
-0.662015	0.000428707
-0.722056	0.00141658
-0.672026	0.0101016
-0.73212	0.00365161
-0.681964	0.00286997
-0.742127	-0.00272637
-0.691978	-0.000846265
-0.752149	-0.00353865
-0.702138	0.000294876
-0.762091	-0.00472163
-0.712076	-0.00640579
-0.772151	-0.00897189
-0.722125	-0.0050306
-0.782086	-0.0111525
-0.732135	-0.00986511
-0.792142	-0.0109275
-0.742096	-0.0090536
-0.802107	-0.0126922
-0.752088	-0.00915481
-0.812053	-0.0102506
-0.762118	-0.00839748
-0.822067	-0.00572651
-0.772125	-0.00774974
-0.832105	-0.010623
-0.782067	-0.00894613
-0.84207	-0.0120386
-0.792051	-0.00851507
-0.852038	-0.00904369
-0.802138	-0.00574876
-0.86206	-0.00752781
-0.812057	-0.00442554
-0.872048	-0.00853725
-0.822117	-0.00397512
-0.882101	-0.00125134
-0.832051	0.00183873
-0.89207	0.00156482
-0.842093	0.00351618
-0.902057	-0.000897938
-0.852092	0.0040089
-0.912121	0.00249073
-0.862106	0.00337656
-0.922067	-0.00214753
-0.872041	0.00144242
-0.932036	-0.00684158
-0.882135	0.000230248
-0.942073	-0.00238562
-0.892123	0.000761606
-0.952088	-0.00375639
-0.902115	0.000486477
-0.962057	-0.00473032
-0.912102	0.00319914
-0.972102	0.000573817
-0.922052	0.0089713
-0.982093	0.00393337
-0.932139	0.0115786
-0.992069	0.00688123
-0.942089	0.00824651
-1.00206	0.00398642
-0.95205	0.00470137
-1.01211	0.00263363
-0.962099	0.0101153
-1.0221	0.0022861
-0.97206	0.00438517
-1.03206	0.00120402
-0.982135	0.00878107
-1.04209	0.00639803
-0.992123	0.00852248
-1.05208	0.00146909
-1.00208	0.0123952
-1.06207	0.00241437
-1.01208	0.00120844
-1.07204	-0.00284938
-1.02212	0.00190107
-1.08209	-0.00327556
-1.03212	0.000394792
-1.09209	-0.000925146
-1.04208	-0.000674556
-1.10205	-0.00816647
-1.05212	-0.00227862
-1.11211	-0.00668214
-1.0621	0.00120684
-1.12216	-0.00419408
-1.07208	0.00501591