File: VFSWV_data_prep/Example_data/CoPc(OMe)8_VFSWV_txt_data/CoPc(OMe)8_CNT_VFSWV_scans_13_12_C02.txt
Ewe/V	<I>/mA
-0.12211	-0.291801
-0.0721026	0.686571
-0.132117	-0.788814
-0.0821056	0.633879
-0.142105	-0.799887
-0.0921239	0.627897
-0.152119	-0.816942
-0.102112	0.609569
-0.162065	-0.824706
-0.112103	0.604987
-0.172095	-0.831706
-0.122099	0.606005
-0.182094	-0.840361
-0.132071	0.613387
-0.192074	-0.854107
-0.142074	0.618351
-0.202062	-0.87918
-0.152123	0.614915
-0.212122	-0.898653
-0.162141	0.618606
-0.222049	-0.922327
-0.172095	0.631079
-0.232079	-0.942691
-0.18209	0.653097
-0.242089	-0.974128
-0.192063	0.65437
-0.252035	-0.999965
-0.202089	0.670916
-0.26205	-1.02466
-0.212084	0.689117
-0.272095	-1.04808
-0.222049	0.695735
-0.282147	-1.07697
-0.23206	0.71699
-0.29215	-1.09122
-0.242082	0.723863
-0.302157	-1.10624
-0.252073	0.736209
-0.31208	-1.13004
-0.26205	0.757337
-0.32216	-1.15817
-0.272072	0.7595
-0.332166	-1.17981
-0.282113	0.7623
-0.342169	-1.18795
-0.292131	0.772355
-0.352138	-1.20399
-0.302123	0.778719
-0.362137	-1.23008
-0.312183	0.787246
-0.372167	-1.24535
-0.322152	0.791192
-0.382124	-1.26724
-0.33209	0.798956
-0.392177	-1.30199
-0.342112	0.819829
-0.402153	-1.33152
-0.352134	0.824284
-0.412114	-1.35965
-0.362126	0.836248
-0.422144	-1.39478
-0.372072	0.854576
-0.432071	-1.43741
-0.38209	0.868703
-0.442097	-1.49011
-0.392131	0.907522
-0.452111	-1.52587
-0.402096	0.934378
-0.462126	-1.59154
-0.412103	0.964797
-0.472098	-1.65416
-0.42211	1.00043
-0.482098	-1.72837
-0.432128	1.04193
-0.492062	-1.81173
-0.442097	1.08227
-0.502111	-1.93264
-0.452096	1.15304
-0.512065	-2.05407
-0.462099	1.21642
-0.52211	-2.21609
-0.472049	1.3143
-0.532094	-2.40484
-0.482067	1.42935
-0.542093	-2.62935
-0.492062	1.57636
-0.552084	-2.87487
-0.502107	1.73864
-0.562042	-3.1517
-0.512042	1.9363
-0.572049	-3.46772
-0.522068	2.13701
-0.582101	-3.78235
-0.53201	2.36649
-0.592089	-4.10321
-0.542024	2.56428
-0.602035	-4.4214
-0.552088	2.75939
-0.612049	-4.72305
-0.562118	2.92536
-0.622106	-4.99644
-0.572022	3.05378
-0.632013	-5.2347
-0.582006	3.15242
-0.642081	-5.44407
-0.592058	3.23273
-0.652039	-5.61233
-0.602019	3.27499
-0.66203	-5.74177
-0.612	3.30146
-0.672033	-5.81839
-0.622056	3.30795
-0.682055	-5.86
-0.632074	3.29153
-0.69202	-5.84422
-0.642043	3.27371
-0.702	-5.79509
-0.65205	3.23591
-0.712137	-5.69773
-0.662057	3.19238
-0.722159	-5.56014
-0.672079	3.14033
-0.732093	-5.39074
-0.682051	3.05582
-0.7421	-5.1904
-0.692024	2.97016
-0.752088	-4.97887
-0.702134	2.85307
-0.762091	-4.76034
-0.712148	2.74946
-0.772163	-4.54461
-0.722159	2.62995
-0.782139	-4.34478
-0.732139	2.51069
-0.792154	-4.14649
-0.742074	2.39996
-0.802107	-3.98026
-0.752126	2.28669
-0.812095	-3.83186
-0.762145	2.17939
-0.822155	-3.70598
-0.772106	2.08648
-0.832158	-3.59831
-0.782082	2.0077
-0.842123	-3.50667
-0.7921	1.93642
-0.852088	-3.44189
-0.802061	1.87355
-0.862118	-3.38461
-0.812114	1.82251
-0.872109	-3.33459
-0.822102	1.77669
-0.88207	-3.30557
-0.832101	1.75365
-0.892108	-3.29068
-0.842135	1.72209
-0.902099	-3.27681
-0.852164	1.70389
-0.912102	-3.26994
-0.862057	1.68887
-0.922052	-3.26395
-0.872121	1.66952
-0.932082	-3.26383
-0.882063	1.66023
-0.942073	-3.27859
-0.892096	1.65629
-0.95205	-3.28457
-0.902138	1.65082
-0.962118	-3.29119
-0.912133	1.63987
-0.972014	-3.29997
-0.922071	1.64623
-0.982043	-3.3127
-0.932067	1.64763
-0.992031	-3.30926
-0.942005	1.65018
-1.00207	-3.31805
-0.952092	1.66227
-1.01204	-3.32352
-0.962011	1.66316
-1.02206	-3.33039
-0.972086	1.67436
-1.03204	-3.32517
-0.98204	1.6848
-1.04204	-3.32632
-0.992039	1.68569
-1.05201	-3.32403
-1.00208	1.68963
-1.06206	-3.33039
-1.01204	1.68747
-1.07211	-3.32975
-1.02207	1.69371
-1.08209	-3.33892
-1.03205	1.67754
-1.09201	-3.33841
-1.04204	1.68913
-1.102	-3.33981
-1.05204	1.6946
-1.11203	-3.36488
-1.06207	1.67831
-1.12214	-3.39327
-1.07211	1.69383