File: VFSWV_data_prep/Example_data/CoPc(OMe)8_VFSWV_txt_data/CoPc(OMe)8_CNT_VFSWV_scans_34_33_C02.txt
Ewe/V	<I>/mA
-0.12208	-0.0176478
-0.0720873	0.0490449
-0.132098	-0.0472395
-0.082075	0.0394355
-0.142055	-0.0464759
-0.0920743	0.0390537
-0.152047	-0.0434849
-0.1021	0.0324353
-0.162073	-0.0497214
-0.112092	0.034599
-0.17206	-0.0555125
-0.12211	0.03549
-0.182102	-0.0576125
-0.132048	0.0312262
-0.192002	-0.0569761
-0.142078	0.0328808
-0.202031	-0.0583762
-0.152054	0.0355536
-0.212061	-0.0657582
-0.162065	0.0345354
-0.222064	-0.06684
-0.172064	0.0343445
-0.231991	-0.0683037
-0.182029	0.0303989
-0.242063	-0.0755585
-0.192059	0.0339627
-0.252016	-0.0763221
-0.20205	0.0328172
-0.262019	-0.0818586
-0.212057	0.0349809
-0.27198	-0.0796313
-0.221999	0.0352991
-0.282098	-0.0859951
-0.232063	0.0394355
-0.292128	-0.090577
-0.242028	0.0388628
-0.3021	-0.0934408
-0.252039	0.0328808
-0.312126	-0.0956045
-0.262023	0.0372718
-0.32214	-0.0990409
-0.272022	0.0333899
-0.332124	-0.103686
-0.282151	0.0293807
-0.342112	-0.0998046
-0.292112	0.0405174
-0.3521	-0.110178
-0.3021	0.0372718
-0.362088	-0.111832
-0.312141	0.0326899
-0.372064	-0.112023
-0.322114	0.0336445
-0.382059	-0.113296
-0.33209	0.0332626
-0.392139	-0.121696
-0.342101	0.0415356
-0.402088	-0.124114
-0.352111	0.0388628
-0.412069	-0.131242
-0.362111	0.0319899
-0.422018	-0.127487
-0.372087	0.0365718
-0.432048	-0.138687
-0.382143	0.0400719
-0.442066	-0.142124
-0.392085	0.0408992
-0.452119	-0.143969
-0.402088	0.0415356
-0.46208	-0.151351
-0.412042	0.042872
-0.472056	-0.147342
-0.422072	0.0381628
-0.48212	-0.16007
-0.432101	0.0436356
-0.492024	-0.170825
-0.442066	0.054645
-0.502142	-0.181516
-0.4521	0.0494903
-0.512076	-0.193162
-0.462099	0.0512086
-0.522098	-0.210408
-0.472094	0.0584633
-0.532094	-0.232681
-0.482075	0.0681363
-0.542047	-0.265073
-0.492085	0.0778093
-0.552027	-0.310001
-0.502081	0.087355
-0.562015	-0.367785
-0.512076	0.103455
-0.572045	-0.440459
-0.52206	0.133493
-0.582032	-0.525989
-0.532055	0.17683
-0.592013	-0.623482
-0.542055	0.229395
-0.602035	-0.744713
-0.552058	0.296915
-0.612019	-0.853661
-0.562053	0.389318
-0.622049	-0.972855
-0.572056	0.48452
-0.632021	-1.07869
-0.582036	0.585387
-0.642047	-1.16797
-0.592028	0.687398
-0.651985	-1.23511
-0.602061	0.770637
-0.662022	-1.27507
-0.612023	0.83243
-0.672003	-1.29652
-0.62206	0.87074
-0.681971	-1.27908
-0.632063	0.892122
-0.69199	-1.22932
-0.642066	0.880858
-0.702	-1.16867
-0.652019	0.858203
-0.712091	-1.08906
-0.661996	0.811938
-0.722163	-0.997229
-0.672029	0.746964
-0.732128	-0.907181
-0.682029	0.685871
-0.742108	-0.829224
-0.692032	0.612369
-0.752157	-0.750122
-0.702111	0.540522
-0.762064	-0.686229
-0.712103	0.473702
-0.772106	-0.635128
-0.722037	0.412546
-0.782082	-0.597263
-0.732078	0.364244
-0.792051	-0.563281
-0.742142	0.320589
-0.802054	-0.53528
-0.752103	0.285588
-0.812095	-0.512943
-0.762141	0.253387
-0.822102	-0.500215
-0.772071	0.233086
-0.832093	-0.490288
-0.782074	0.210877
-0.84207	-0.475842
-0.792108	0.194522
-0.852096	-0.476097
-0.802122	0.183958
-0.862076	-0.47196
-0.812072	0.175366
-0.872075	-0.473233
-0.822064	0.170657
-0.882036	-0.478387
-0.832086	0.157548
-0.892058	-0.480551
-0.842077	0.159266
-0.902061	-0.474569
-0.852073	0.154048
-0.912049	-0.480297
-0.862125	0.153284
-0.922067	-0.483924
-0.872125	0.154111
-0.93204	-0.48647
-0.882051	0.149657
-0.942085	-0.487233
-0.892096	0.152011
-0.952084	-0.481378
-0.902069	0.152584
-0.962026	-0.483669
-0.912026	0.156466
-0.972029	-0.48316
-0.922029	0.156339
-0.982124	-0.48596
-0.932047	0.150802
-0.992066	-0.476542
-0.94202	0.154366
-1.00202	-0.479469
-0.952023	0.155575
-1.01205	-0.480297
-0.962018	0.15252
-1.02204	-0.481188
-0.972037	0.159139
-1.03204	-0.482906
-0.982024	0.154302
-1.04205	-0.481315
-0.992031	0.155893
-1.05202	-0.480106
-1.00204	0.156784
-1.06204	-0.483669
-1.012	0.152584
-1.07204	-0.488442
-1.02204	0.152075
-1.08204	-0.490161
-1.03201	0.159521
-1.09201	-0.494997
-1.04203	0.156911
-1.10203	-0.501361
-1.05203	0.152966
-1.11199	-0.514916
-1.06206	0.156911
-1.12216	-0.52077
-1.07203	0.155257