File: VFSWV_data_prep/Example_data/CoPc(OMe)8_VFSWV_txt_data/CoPc(OMe)8_CNT_VFSWV_scans_41_40_C02.txt
Ewe/V	<I>/mA
-0.122076	0.0132803
-0.0721026	0.0405598
-0.132106	-0.00606569
-0.0821094	0.0347475
-0.142059	-0.0114537
-0.0920705	0.0302929
-0.152115	-0.0131931
-0.102081	0.033899
-0.162054	-0.0193024
-0.112088	0.0353415
-0.172087	-0.0179024
-0.122091	0.031905
-0.182052	-0.0187084
-0.13206	0.0290201
-0.192032	-0.0207024
-0.14212	0.0310565
-0.202058	-0.0201509
-0.152093	0.033899
-0.212031	-0.0230358
-0.162057	0.0321172
-0.222099	-0.0268541
-0.172106	0.0349172
-0.232102	-0.0333876
-0.182048	0.0312262
-0.242063	-0.0289754
-0.192044	0.0339414
-0.252031	-0.0304179
-0.20207	0.0315232
-0.262	-0.0333452
-0.212061	0.0337717
-0.272011	-0.0330058
-0.222026	0.0289777
-0.282143	-0.0359756
-0.23206	0.0305898
-0.292108	-0.0411515
-0.242063	0.0330505
-0.302111	-0.0427636
-0.252031	0.0313535
-0.312111	-0.0396242
-0.262061	0.0292322
-0.322129	-0.043103
-0.272018	0.0274504
-0.332101	-0.0424242
-0.282151	0.0299959
-0.342131	-0.0481941
-0.292139	0.0362748
-0.352062	-0.0421273
-0.302172	0.0308868
-0.36216	-0.0470062
-0.312107	0.0356809
-0.372121	-0.0523518
-0.322102	0.0302929
-0.382082	-0.0511214
-0.332117	0.0338566
-0.392082	-0.0551094
-0.342124	0.0310141
-0.402066	-0.0549822
-0.3521	0.0363597
-0.412084	-0.0562549
-0.362122	0.0319899
-0.422087	-0.0599459
-0.372068	0.0339414
-0.432097	-0.0612187
-0.382101	0.0310989
-0.442127	-0.0621945
-0.392104	0.0335172
-0.452035	-0.0673279
-0.402115	0.0387355
-0.462099	-0.0646551
-0.412099	0.0373779
-0.472087	-0.0664794
-0.422091	0.0383537
-0.482078	-0.0716553
-0.432101	0.0364445
-0.492066	-0.0727584
-0.442101	0.0414507
-0.502046	-0.0774676
-0.452104	0.035893
-0.512088	-0.0788676
-0.462088	0.0360203
-0.522075	-0.0859103
-0.472056	0.0403477
-0.532075	-0.0912134
-0.48204	0.0447175
-0.542055	-0.107335
-0.492062	0.0490873
-0.5521	-0.10865
-0.502058	0.0477721
-0.562049	-0.125069
-0.512	0.0541359
-0.572048	-0.140469
-0.522064	0.0564269
-0.582013	-0.165755
-0.532055	0.0638089
-0.592024	-0.199016
-0.542036	0.0773426
-0.602046	-0.235502
-0.552031	0.0879065
-0.612003	-0.277291
-0.562042	0.108313
-0.622056	-0.313056
-0.572037	0.128974
-0.632036	-0.351917
-0.582036	0.159902
-0.642024	-0.389634
-0.592028	0.194097
-0.652073	-0.404737
-0.602016	0.220062
-0.662076	-0.425313
-0.612038	0.255996
-0.671987	-0.432865
-0.622018	0.274196
-0.682036	-0.419883
-0.63199	0.280263
-0.691993	-0.3985
-0.642028	0.283445
-0.702023	-0.380258
-0.651996	0.277506
-0.712129	-0.354802
-0.662038	0.264269
-0.722102	-0.327905
-0.672018	0.240383
-0.732139	-0.306904
-0.682017	0.217474
-0.742009	-0.285649
-0.692001	0.193928
-0.752092	-0.266897
-0.702122	0.176279
-0.762083	-0.25663
-0.71211	0.153539
-0.772079	-0.248739
-0.722087	0.129526
-0.78207	-0.242333
-0.732086	0.122186
-0.792093	-0.24369
-0.742116	0.107634
-0.80208	-0.238005
-0.752031	0.096434
-0.812095	-0.227526
-0.76208	0.0936764
-0.82209	-0.236054
-0.772079	0.0851489
-0.832124	-0.224472
-0.782059	0.0795912
-0.842077	-0.228035
-0.792081	0.0771729
-0.852084	-0.224344
-0.802096	0.0779366
-0.862064	-0.227484
-0.81211	0.073991
-0.872086	-0.223835
-0.822109	0.0688151
-0.882009	-0.228163
-0.832116	0.0694091
-0.892085	-0.228841
-0.842081	0.0670332
-0.902061	-0.229053
-0.852092	0.0729304
-0.912057	-0.228035
-0.862045	0.0693242
-0.922071	-0.228629
-0.87206	0.0717425
-0.932074	-0.229732
-0.882047	0.0684757
-0.942043	-0.230241
-0.892142	0.0750941
-0.952031	-0.222096
-0.902084	0.0760698
-0.962037	-0.218871
-0.912072	0.0718273
-0.972071	-0.22952
-0.92206	0.0763668
-0.982017	-0.224514
-0.932059	0.0756456
-0.992035	-0.223835
-0.942058	0.0680515
-1.00201	-0.225956
-0.952027	0.0694939
-1.01206	-0.220993
-0.962018	0.0769608
-1.02203	-0.221459
-0.971976	0.0787851
-1.03202	-0.226508
-0.982093	0.0735667
-1.04202	-0.230284
-0.992047	0.0710637
-1.05203	-0.222435
-1.00207	0.0693666
-1.06202	-0.228587
-1.01201	0.0720394
-1.07204	-0.233126
-1.02202	0.0677969
-1.08201	-0.231726
-1.03206	0.0728455
-1.09204	-0.24403
-1.04197	0.0705121
-1.10202	-0.240466
-1.05202	0.0716576
-1.11205	-0.246108
-1.06205	0.0712334
-1.12211	-0.255781
-1.07204	0.0668211