File: VFSWV_data_prep/Example_data/CoPc(OMe)8_VFSWV_txt_data/CoPc(OMe)8_CNT_VFSWV_scans_55_54_C02.txt
Ewe/V	<I>/mA
-0.12211	0.00717103
-0.0721598	0.0180531
-0.132106	-0.000465535
-0.0820903	0.015269
-0.142097	0.00174589
-0.0920781	0.0133121
-0.152066	0.000584494
-0.102062	0.0133917
-0.162015	0.0020959
-0.112107	0.0134394
-0.172064	-0.0044111
-0.122091	0.0167167
-0.182048	-0.00367926
-0.132071	0.0122939
-0.192074	-0.00156329
-0.142116	0.0148235
-0.202043	-0.00595432
-0.152035	0.0173213
-0.212054	-0.000815544
-0.162057	0.0137417
-0.222041	-0.00612932
-0.17206	0.0109416
-0.232037	-0.00829302
-0.182052	0.00769605
-0.242013	-0.00784755
-0.192055	0.0121189
-0.252047	-0.00800665
-0.202001	0.00803015
-0.262031	-0.0133682
-0.212038	0.00822106
-0.27203	-0.0126045
-0.222045	0.0103688
-0.282155	-0.0119522
-0.232033	0.00338457
-0.292131	-0.0156909
-0.242066	0.00772787
-0.302169	-0.0148955
-0.252024	0.00922336
-0.312134	-0.0137977
-0.262008	0.00809379
-0.322175	-0.01585
-0.272037	0.00699603
-0.332121	-0.0180296
-0.282098	0.0117689
-0.342078	-0.0137182
-0.292124	0.00537326
-0.352066	-0.0143864
-0.302119	0.0120871
-0.362122	-0.0132886
-0.312126	0.0112757
-0.372091	-0.0131772
-0.322121	0.00771196
-0.38209	-0.0140523
-0.332136	0.0110689
-0.392123	-0.0171228
-0.342108	0.00984383
-0.402108	-0.0138295
-0.352115	0.00503916
-0.412084	-0.0176478
-0.362122	0.0144894
-0.422102	-0.0209729
-0.372102	0.00812561
-0.432101	-0.0155159
-0.382098	0.0132007
-0.442078	-0.0119204
-0.392131	0.012103
-0.452092	-0.00764073
-0.402107	0.0190554
-0.46208	-0.0110295
-0.412107	0.0107666
-0.472087	-0.0150864
-0.42214	0.0105916
-0.482098	-0.0177274
-0.432067	0.0112121
-0.492059	-0.019016
-0.442101	0.0109575
-0.502107	-0.0190956
-0.452046	0.00869835
-0.512126	-0.0239321
-0.46211	0.0113711
-0.522068	-0.0238048
-0.47206	0.00873017
-0.532052	-0.0214979
-0.482036	0.013153
-0.542058	-0.021132
-0.492028	0.0132326
-0.552081	-0.0250457
-0.502042	0.0151894
-0.562046	-0.0258889
-0.512057	0.013153
-0.572045	-0.0313459
-0.522079	0.021076
-0.582071	-0.0261594
-0.53204	0.0181009
-0.592043	-0.0312664
-0.542097	0.0192145
-0.602073	-0.0389825
-0.552027	0.0165736
-0.612007	-0.0371688
-0.562061	0.0178781
-0.622033	-0.0421007
-0.572052	0.0164145
-0.632067	-0.0457918
-0.582055	0.0186259
-0.641959	-0.0484327
-0.592081	0.0183236
-0.652039	-0.0495464
-0.602061	0.022651
-0.662015	-0.0493873
-0.612065	0.0297307
-0.672033	-0.0487509
-0.622113	0.0211237
-0.68204	-0.0521078
-0.631983	0.026867
-0.692051	-0.0521715
-0.642058	0.0254829
-0.702016	-0.0554966
-0.652004	0.0203282
-0.712148	-0.0534442
-0.662038	0.0246556
-0.72214	-0.0541443
-0.672045	0.0256579
-0.732139	-0.0518692
-0.682013	0.0270261
-0.742123	-0.0537465
-0.692047	0.0274716
-0.75208	-0.054717
-0.702161	0.0218237
-0.762114	-0.0512964
-0.712141	0.0267557
-0.772109	-0.052951
-0.722144	0.0217442
-0.782086	-0.0543829
-0.732082	0.0238601
-0.792131	-0.0519328
-0.742104	0.0225396
-0.802061	-0.0555761
-0.752149	0.0216487
-0.812083	-0.0500237
-0.762095	0.0249579
-0.822121	-0.0553375
-0.772052	0.0216487
-0.832036	-0.0543033
-0.78209	0.01931
-0.842096	-0.0579784
-0.792081	0.015619
-0.852096	-0.0568966
-0.802099	0.0174486
-0.862087	-0.0578989
-0.81206	0.0190873
-0.872079	-0.0561966
-0.822094	0.0165895
-0.882078	-0.0586785
-0.83204	0.0124053
-0.892108	-0.0573739
-0.84207	0.0136303
-0.902088	-0.0590285
-0.852061	0.0189123
-0.912053	-0.0626558
-0.862099	0.0200418
-0.922067	-0.0581057
-0.872167	0.0184032
-0.932108	-0.0547965
-0.882086	0.014569
-0.942054	-0.0580103
-0.892054	0.0160645
-0.952069	-0.0572466
-0.90205	0.0142985
-0.962011	-0.0547647
-0.912118	0.0206941
-0.971999	-0.0508033
-0.922067	0.0211714
-0.982036	-0.0586307
-0.932097	0.0153008
-0.992016	-0.0582171
-0.942127	0.0155554
-1.00205	-0.059983
-0.952027	0.0188804
-1.01205	-0.0595694
-0.962099	0.0175759
-1.02207	-0.0568807
-0.972071	0.015094
-1.03202	-0.0615899
-0.982047	0.0134712
-1.04209	-0.0606831
-0.992077	0.0151735
-1.05202	-0.0622581
-1.00207	0.0124371
-1.06207	-0.0626081
-1.01208	0.0107348
-1.07206	-0.0651059
-1.02206	0.0152372
-1.08208	-0.0648036
-1.03206	0.0120393
-1.09202	-0.0686378
-1.04209	0.015094
-1.10207	-0.0673492
-1.05205	0.0100984
-1.11203	-0.0732675
-1.06204	0.0100347
-1.12214	-0.0773085
-1.07203	0.00530962