File: VFSWV_data_prep/Example_data/CoPc(OMe)8_VFSWV_txt_data/CoPc(OMe)8_CNT_VFSWV_scans_42_41_C02.txt
Ewe/V	<I>/mA
-0.122045	0.00602555
-0.072114	0.0318202
-0.132018	-0.0150599
-0.0820789	0.0289777
-0.142051	-0.0151023
-0.0921086	0.0280867
-0.1521	-0.0151871
-0.102028	0.0257534
-0.162065	-0.0183266
-0.112054	0.0249048
-0.172045	-0.0165448
-0.122045	0.0260079
-0.182033	-0.0224843
-0.132006	0.0270261
-0.192036	-0.0266844
-0.142059	0.0271958
-0.202043	-0.0270238
-0.152031	0.0238018
-0.212038	-0.0357635
-0.162069	0.021129
-0.222018	-0.033727
-0.172049	0.024523
-0.23206	-0.0416182
-0.182037	0.0236321
-0.242074	-0.0370362
-0.192009	0.0226563
-0.251997	-0.0413636
-0.202039	0.0238018
-0.262038	-0.0390302
-0.212038	0.0237594
-0.272011	-0.039709
-0.222049	0.0263897
-0.282067	-0.0398363
-0.231987	0.024523
-0.292097	-0.0458607
-0.242021	0.0210866
-0.30213	-0.0504426
-0.252031	0.0218078
-0.31213	-0.0489577
-0.262084	0.0226987
-0.322156	-0.0517578
-0.272014	0.0165895
-0.332128	-0.0535821
-0.282132	0.022529
-0.342066	-0.0478547
-0.292116	0.020832
-0.352108	-0.055364
-0.302108	0.0207047
-0.362084	-0.0613035
-0.312111	0.0220199
-0.372095	-0.05477
-0.322083	0.0225714
-0.382105	-0.0562125
-0.332143	0.0229957
-0.392062	-0.0552367
-0.342116	0.025117
-0.402077	-0.0538367
-0.352089	0.0260503
-0.41205	-0.0628308
-0.362114	0.0269413
-0.422068	-0.0644006
-0.372072	0.0186259
-0.432113	-0.0673279
-0.382086	0.0178622
-0.442059	-0.0666916
-0.392062	0.0232927
-0.452081	-0.0733948
-0.402088	0.0238018
-0.462122	-0.0716129
-0.412065	0.0224017
-0.472071	-0.0686007
-0.422083	0.0277898
-0.482052	-0.0720796
-0.432075	0.0297413
-0.492051	-0.0799283
-0.442108	0.0252867
-0.502104	-0.0817101
-0.452065	0.0284686
-0.512038	-0.0866315
-0.462046	0.0277898
-0.522079	-0.0862921
-0.472072	0.0329657
-0.532052	-0.0887103
-0.482055	0.0342809
-0.542009	-0.101141
-0.492047	0.0320747
-0.552031	-0.107505
-0.502092	0.0361051
-0.562049	-0.119723
-0.512061	0.0421295
-0.572056	-0.139706
-0.522045	0.0475176
-0.58201	-0.157482
-0.532017	0.0487055
-0.592036	-0.18264
-0.542043	0.0553238
-0.601985	-0.211871
-0.552085	0.0658878
-0.612003	-0.245812
-0.562045	0.0865489
-0.622098	-0.274449
-0.572022	0.105174
-0.632025	-0.313353
-0.581998	0.13118
-0.642016	-0.337281
-0.592013	0.159308
-0.651974	-0.366512
-0.602008	0.18277
-0.662042	-0.374488
-0.612045	0.206825
-0.672033	-0.373512
-0.622014	0.221674
-0.682036	-0.370288
-0.632032	0.232747
-0.692001	-0.354081
-0.642016	0.242165
-0.702042	-0.335923
-0.652019	0.235123
-0.71211	-0.319971
-0.661969	0.222183
-0.722052	-0.30334
-0.672052	0.198764
-0.732101	-0.283316
-0.681979	0.180818
-0.742066	-0.26223
-0.692035	0.16266
-0.752077	-0.245472
-0.702122	0.142296
-0.762064	-0.241654
-0.712114	0.123714
-0.772113	-0.237199
-0.722064	0.113107
-0.782048	-0.229563
-0.732071	0.101101
-0.792051	-0.220526
-0.742077	0.0921915
-0.802054	-0.222605
-0.752061	0.0803972
-0.81208	-0.218999
-0.762053	0.0723364
-0.822102	-0.220017
-0.772102	0.0746698
-0.832059	-0.214205
-0.782048	0.0656332
-0.842142	-0.213568
-0.792112	0.0652938
-0.852069	-0.214205
-0.802107	0.0587603
-0.862068	-0.217471
-0.812076	0.0571057
-0.872098	-0.219465
-0.822098	0.0565118
-0.882036	-0.217683
-0.83212	0.0578694
-0.892062	-0.221162
-0.842077	0.0545178
-0.902076	-0.221035
-0.852023	0.0504025
-0.912083	-0.223962
-0.862022	0.0505298
-0.922086	-0.224641
-0.872067	0.0540511
-0.932032	-0.221671
-0.882089	0.0562148
-0.94202	-0.221671
-0.892092	0.0532026
-0.952076	-0.221544
-0.902069	0.0550693
-0.962102	-0.210132
-0.912072	0.0499358
-0.971995	-0.223453
-0.922079	0.0542632
-0.982059	-0.220865
-0.932044	0.0502752
-0.992031	-0.224005
-0.942062	0.0519298
-1.00208	-0.216665
-0.952073	0.0508267
-1.01206	-0.225108
-0.962087	0.0539662
-1.02206	-0.226338
-0.972105	0.0505722
-1.03202	-0.220865
-0.982051	0.0535844
-1.04205	-0.227781
-0.992043	0.0572754
-1.05206	-0.226805
-1.00203	0.0513783
-1.06198	-0.227908
-1.01211	0.0502752
-1.07202	-0.224938
-1.02202	0.0527783
-1.08208	-0.232532
-1.03202	0.0484934
-1.09207	-0.23792
-1.04202	0.0504873
-1.10207	-0.237157
-1.05202	0.0504449
-1.11198	-0.251539
-1.06198	0.0478994
-1.12208	-0.251624
-1.07201	0.0501055