File: VFSWV_data_prep/Example_data/CoPc(OMe)8_VFSWV_txt_data/CoPc(OMe)8_CNT_VFSWV_scans_29_28_C02.txt
Ewe/V	<I>/mA
-0.122038	-0.0207024
-0.0720605	0.0751365
-0.132083	-0.0652236
-0.0820826	0.0669654
-0.142089	-0.0622454
-0.0920705	0.0623071
-0.152073	-0.0649945
-0.102043	0.0567324
-0.162027	-0.0746166
-0.112054	0.0605506
-0.171999	-0.0744639
-0.122072	0.0533723
-0.181995	-0.0814132
-0.132094	0.0448193
-0.192044	-0.0853078
-0.142021	0.0534486
-0.202096	-0.086606
-0.15202	0.058336
-0.212015	-0.0966099
-0.162019	0.0489431
-0.22203	-0.0992064
-0.172037	0.0498594
-0.232037	-0.103025
-0.182029	0.0478739
-0.242066	-0.103177
-0.192002	0.0557396
-0.252012	-0.115243
-0.202062	0.0503176
-0.262004	-0.114785
-0.212027	0.0545178
-0.271995	-0.126774
-0.222041	0.0568851
-0.282113	-0.123262
-0.232037	0.0544414
-0.292089	-0.138611
-0.24207	0.0550523
-0.302134	-0.131585
-0.252008	0.0564269
-0.312137	-0.137695
-0.262011	0.0573433
-0.322106	-0.143498
-0.271984	0.0563505
-0.332067	-0.146629
-0.282159	0.0593288
-0.342097	-0.156022
-0.292127	0.0601688
-0.352073	-0.156481
-0.302096	0.0593288
-0.362107	-0.158466
-0.312107	0.0610852
-0.372167	-0.16847
-0.322095	0.0626889
-0.382071	-0.171219
-0.332105	0.0641398
-0.392059	-0.170608
-0.342116	0.0628416
-0.402127	-0.185041
-0.352085	0.0646744
-0.412065	-0.190922
-0.362095	0.0653617
-0.422087	-0.196114
-0.37211	0.0694091
-0.43209	-0.201231
-0.382098	0.0644453
-0.442089	-0.20734
-0.392047	0.0711655
-0.452092	-0.212839
-0.402096	0.0740674
-0.46208	-0.225897
-0.412088	0.0746783
-0.472052	-0.236588
-0.42211	0.0778093
-0.482048	-0.248043
-0.432082	0.089035
-0.49207	-0.260949
-0.442089	0.0895696
-0.502065	-0.281186
-0.451981	0.100948
-0.512068	-0.306157
-0.462061	0.109883
-0.522071	-0.348082
-0.47203	0.121796
-0.532029	-0.396193
-0.482071	0.128134
-0.542081	-0.448503
-0.492043	0.160208
-0.552012	-0.540447
-0.502069	0.18938
-0.562003	-0.644381
-0.512026	0.234741
-0.572029	-0.767712
-0.522064	0.291939
-0.58204	-0.903184
-0.532029	0.373726
-0.592047	-1.06699
-0.542009	0.48774
-0.602027	-1.244
-0.552069	0.621762
-0.612038	-1.41415
-0.562049	0.774264
-0.622037	-1.57421
-0.572048	0.928676
-0.631998	-1.72908
-0.58201	1.07178
-0.64199	-1.85867
-0.592028	1.20336
-0.651943	-1.9639
-0.602016	1.29981
-0.662007	-2.0253
-0.611988	1.38038
-0.672029	-2.04783
-0.621976	1.4236
-0.68199	-2.03844
-0.632029	1.44239
-0.692047	-1.98826
-0.642055	1.42017
-0.701981	-1.90434
-0.652058	1.3787
-0.712072	-1.79972
-0.661977	1.31577
-0.72209	-1.66997
-0.672003	1.2304
-0.73212	-1.53832
-0.682025	1.13838
-0.742115	-1.40162
-0.691993	1.04162
-0.752122	-1.28043
-0.702138	0.93532
-0.762053	-1.16993
-0.712068	0.83467
-0.772045	-1.08402
-0.722148	0.73127
-0.782112	-0.991921
-0.732128	0.66445
-0.792051	-0.932127
-0.74207	0.587016
-0.80205	-0.876609
-0.752126	0.525236
-0.812099	-0.82827
-0.762049	0.472696
-0.822056	-0.801847
-0.772148	0.426724
-0.832101	-0.777486
-0.782093	0.397705
-0.842073	-0.753737
-0.792093	0.367235
-0.852042	-0.743122
-0.802057	0.347304
-0.862083	-0.73518
-0.812015	0.326761
-0.872083	-0.725634
-0.822033	0.315917
-0.882055	-0.728001
-0.83207	0.303164
-0.892054	-0.730522
-0.842054	0.296673
-0.902031	-0.730598
-0.852096	0.284989
-0.912022	-0.733805
-0.862064	0.288808
-0.92206	-0.738769
-0.87206	0.279644
-0.932032	-0.7335
-0.882086	0.280484
-0.942054	-0.742816
-0.892119	0.284989
-0.952008	-0.732965
-0.902084	0.286669
-0.962057	-0.736096
-0.912049	0.2814
-0.972002	-0.742282
-0.922044	0.280102
-0.982017	-0.730216
-0.932005	0.284531
-0.99202	-0.736783
-0.942039	0.285677
-1.00203	-0.736478
-0.952046	0.283309
-1.01205	-0.739227
-0.962014	0.282393
-1.02201	-0.737318
-0.972018	0.288731
-1.03202	-0.735791
-0.982059	0.288273
-1.04205	-0.739762
-0.992031	0.289342
-1.05204	-0.740678
-1.00211	0.282775
-1.06202	-0.741671
-1.01205	0.284149
-1.07201	-0.747933
-1.02206	0.284989
-1.08207	-0.748238
-1.03206	0.290106
-1.09206	-0.753966
-1.04202	0.282546
-1.10201	-0.770843
-1.052	0.284378
-1.11201	-0.77321
-1.062	0.282698
-1.12209	-0.788101
-1.07202	0.289495