File: VFSWV_data_prep/Example_data/CoPc(OMe)8_VFSWV_txt_data/CoPc(OMe)8_CNT_VFSWV_scans_47_46_C02.txt
Ewe/V	<I>/mA
-0.122049	0.00220726
-0.0720605	0.0329618
-0.132083	0.0029015
-0.0820597	0.0362941
-0.142074	-0.000951498
-0.0920704	0.0312609
-0.152047	-0.00265237
-0.102096	0.0278245
-0.162107	-0.00501276
-0.112046	0.0308791
-0.172038	-0.00747729
-0.12206	0.0329965
-0.182041	-0.00379786
-0.132086	0.024631
-0.19204	-0.00733845
-0.142074	0.0277203
-0.20205	-0.00240939
-0.152073	0.0315039
-0.212054	-0.00671364
-0.162099	0.0304626
-0.222076	-0.0161205
-0.17208	0.0286923
-0.232086	-0.0131353
-0.182117	0.0280328
-0.242116	-0.0162246
-0.192013	0.0306361
-0.252066	-0.0140378
-0.202058	0.0270955
-0.262069	-0.0135865
-0.212034	0.0332048
-0.271995	-0.0224033
-0.222049	0.0271997
-0.282155	-0.0169883
-0.232033	0.031851
-0.292112	-0.0211537
-0.242013	0.0277203
-0.302146	-0.0260828
-0.252073	0.0256029
-0.312122	-0.0259092
-0.262046	0.0312262
-0.322163	-0.0294845
-0.272045	0.026193
-0.332094	-0.0257356
-0.28214	0.0271997
-0.342112	-0.0271241
-0.29217	0.0263666
-0.352081	-0.0278878
-0.30215	0.0286228
-0.362134	-0.030144
-0.312084	0.0291782
-0.372117	-0.0265687
-0.322064	0.0266096
-0.382121	-0.0306647
-0.33214	0.0276162
-0.392074	-0.0279919
-0.34207	0.0334825
-0.402096	-0.0302482
-0.352115	0.030289
-0.412042	-0.0328515
-0.362084	0.0268178
-0.422083	-0.0314631
-0.372106	0.0333089
-0.43209	-0.0334069
-0.382086	0.034385
-0.44207	-0.0356285
-0.392082	0.0328924
-0.452073	-0.0367392
-0.402123	0.0276856
-0.462099	-0.0406269
-0.412099	0.032094
-0.472083	-0.0405922
-0.422056	0.0296642
-0.482105	-0.04809
-0.432052	0.0329965
-0.492085	-0.0454519
-0.44212	0.0308097
-0.502042	-0.0469098
-0.452069	0.0305667
-0.512023	-0.0503462
-0.462111	0.0339684
-0.522029	-0.0501032
-0.472049	0.033656
-0.532086	-0.053505
-0.482052	0.0320593
-0.542074	-0.0554488
-0.492047	0.0407025
-0.552065	-0.057601
-0.50205	0.0429241
-0.562023	-0.0728741
-0.512026	0.0331701
-0.572033	-0.076623
-0.522045	0.0385157
-0.582017	-0.0868976
-0.532002	0.0381686
-0.592016	-0.104184
-0.542062	0.0446944
-0.602046	-0.108176
-0.552062	0.0492763
-0.612084	-0.127371
-0.562026	0.0555591
-0.622041	-0.143304
-0.572049	0.0611824
-0.632059	-0.155731
-0.58204	0.0754142
-0.642036	-0.168435
-0.59202	0.079649
-0.652027	-0.181487
-0.602016	0.093742
-0.662015	-0.188186
-0.612049	0.0985322
-0.672052	-0.191414
-0.62206	0.10478
-0.682002	-0.190443
-0.63204	0.112174
-0.692009	-0.184889
-0.642035	0.110959
-0.702	-0.178259
-0.652027	0.108078
-0.712126	-0.173677
-0.662022	0.107835
-0.722056	-0.169477
-0.67201	0.104503
-0.732059	-0.161181
-0.682029	0.0984627
-0.742119	-0.152711
-0.692005	0.0861748
-0.752115	-0.151322
-0.702107	0.0803432
-0.762122	-0.15764
-0.712087	0.0754489
-0.772071	-0.149691
-0.72214	0.0653825
-0.782097	-0.150941
-0.732151	0.059551
-0.79207	-0.147955
-0.742112	0.0547607
-0.802046	-0.14556
-0.752119	0.0518797
-0.812114	-0.143894
-0.762083	0.0497623
-0.822102	-0.141464
-0.772071	0.0452845
-0.832059	-0.148893
-0.782093	0.045701
-0.842051	-0.146845
-0.792058	0.051116
-0.85208	-0.13775
-0.802077	0.0477143
-0.862057	-0.145317
-0.812102	0.0461522
-0.872094	-0.150975
-0.822086	0.0389669
-0.882109	-0.153683
-0.832097	0.0451803
-0.892085	-0.15278
-0.842096	0.0400777
-0.902092	-0.153752
-0.852035	0.037752
-0.91206	-0.148094
-0.862114	0.0387934
-0.922033	-0.152399
-0.87209	0.0434794
-0.932044	-0.153648
-0.882074	0.0374743
-0.94207	-0.151947
-0.89202	0.0441737
-0.952034	-0.150142
-0.902157	0.0408066
-0.962076	-0.150524
-0.912068	0.0402513
-0.97209	-0.145595
-0.922056	0.044382
-0.982024	-0.149448
-0.932097	0.050873
-0.992066	-0.146046
-0.942096	0.0399389
-1.00202	-0.146463
-0.951985	0.045458
-1.01199	-0.14799
-0.962018	0.0448332
-1.02206	-0.149691
-0.972029	0.0443472
-1.03197	-0.149587
-0.982055	0.0441043
-1.04204	-0.147955
-0.992089	0.0479573
-1.05201	-0.148268
-1.002	0.0489986
-1.062	-0.150628
-1.01205	0.0485821
-1.072	-0.154585
-1.02204	0.0475407
-1.08197	-0.154169
-1.03207	0.0449373
-1.09204	-0.158438
-1.04207	0.0484779
-1.10204	-0.16427
-1.05203	0.044972
-1.11199	-0.166457
-1.06208	0.0354263
-1.12215	-0.172149
-1.07206	0.0386892