File: VFSWV_data_prep/Example_data/CoPc(OMe)8_VFSWV_txt_data/CoPc(OMe)8_CNT_VFSWV_scans_14_13_C02.txt
Ewe/V	<I>/mA
-0.122118	-0.238726
-0.0721254	0.553949
-0.132086	-0.655429
-0.0821018	0.523148
-0.142074	-0.659629
-0.0920781	0.51513
-0.152081	-0.678084
-0.102108	0.500239
-0.162096	-0.683429
-0.112046	0.494511
-0.172015	-0.69043
-0.122076	0.498584
-0.182086	-0.704939
-0.13206	0.498457
-0.192051	-0.711812
-0.142131	0.494766
-0.202066	-0.726831
-0.152054	0.510166
-0.212076	-0.746558
-0.162065	0.522894
-0.22203	-0.766159
-0.172083	0.514366
-0.232021	-0.791741
-0.18201	0.53104
-0.242074	-0.81656
-0.192055	0.542876
-0.252077	-0.840361
-0.202077	0.55064
-0.262042	-0.862125
-0.212069	0.558531
-0.272045	-0.875998
-0.222053	0.577877
-0.282197	-0.904508
-0.232021	0.596841
-0.292154	-0.921818
-0.242005	0.605242
-0.302134	-0.946764
-0.252058	0.618224
-0.312153	-0.958091
-0.26208	0.628788
-0.322072	-0.983165
-0.272053	0.633115
-0.332086	-0.988892
-0.28214	0.641515
-0.342135	-1.00264
-0.292162	0.638588
-0.352131	-1.02682
-0.302176	0.655643
-0.362126	-1.03917
-0.31216	0.651316
-0.372125	-1.06819
-0.322129	0.670152
-0.382098	-1.08282
-0.332128	0.672698
-0.392097	-1.10942
-0.342154	0.689498
-0.402161	-1.13284
-0.352085	0.694717
-0.412145	-1.15766
-0.362084	0.704135
-0.422056	-1.20043
-0.372114	0.717881
-0.432147	-1.24319
-0.382128	0.746136
-0.442093	-1.27666
-0.39212	0.764464
-0.452107	-1.3221
-0.402134	0.79221
-0.462103	-1.37352
-0.412091	0.821866
-0.472136	-1.43856
-0.422083	0.850121
-0.482124	-1.50194
-0.432101	0.884867
-0.49207	-1.59422
-0.442135	0.930941
-0.502119	-1.68891
-0.452088	0.982997
-0.512088	-1.81097
-0.46208	1.04536
-0.522094	-1.97057
-0.472083	1.13662
-0.532075	-2.1499
-0.482105	1.25091
-0.542043	-2.36258
-0.492024	1.38634
-0.552065	-2.6081
-0.502115	1.54072
-0.562038	-2.87207
-0.512046	1.74093
-0.57211	-3.17651
-0.522045	1.95221
-0.582029	-3.48605
-0.532059	2.17354
-0.592066	-3.80768
-0.542058	2.39042
-0.602046	-4.12027
-0.552088	2.59559
-0.612072	-4.41262
-0.562042	2.76563
-0.622029	-4.69403
-0.572087	2.92052
-0.632059	-4.93573
-0.582013	3.02794
-0.642032	-5.14624
-0.592066	3.11704
-0.652019	-5.30775
-0.60205	3.17024
-0.662015	-5.43147
-0.612053	3.206
-0.672041	-5.50974
-0.622037	3.2186
-0.682051	-5.54309
-0.632059	3.21148
-0.69202	-5.51712
-0.642051	3.18793
-0.702061	-5.45934
-0.652069	3.15064
-0.712145	-5.36185
-0.662049	3.0996
-0.722121	-5.21153
-0.672022	3.02769
-0.732132	-5.03958
-0.682032	2.93605
-0.742112	-4.84052
-0.69202	2.84594
-0.752103	-4.62937
-0.702115	2.72846
-0.762122	-4.41529
-0.712122	2.61684
-0.77214	-4.19269
-0.72209	2.49122
-0.782177	-3.99095
-0.732105	2.36674
-0.792131	-3.80348
-0.742066	2.24252
-0.802092	-3.64018
-0.75208	2.13497
-0.812133	-3.49432
-0.762148	2.02488
-0.822094	-3.37927
-0.772117	1.9377
-0.832139	-3.27083
-0.782116	1.84733
-0.842062	-3.19051
-0.792104	1.78
-0.852103	-3.11911
-0.802088	1.72044
-0.862072	-3.06769
-0.812076	1.67487
-0.87209	-3.02467
-0.822083	1.63351
-0.882086	-3.00635
-0.832128	1.5896
-0.892085	-2.97669
-0.842073	1.56974
-0.90208	-2.96842
-0.852088	1.5565
-0.912095	-2.95976
-0.862034	1.53359
-0.922105	-2.96816
-0.872136	1.51005
-0.932086	-2.96155
-0.882082	1.5047
-0.942039	-2.96944
-0.892096	1.5117
-0.952027	-2.97542
-0.902141	1.50305
-0.962091	-2.98369
-0.912034	1.48841
-0.972086	-3.00189
-0.922083	1.49503
-0.982063	-3.0024
-0.932059	1.50776
-0.992069	-3.01055
-0.942085	1.50381
-1.0021	-3.00927
-0.952046	1.51501
-1.0121	-3.01513
-0.962087	1.52405
-1.02205	-3.00775
-0.97204	1.53067
-1.03204	-3.01335
-0.982074	1.52659
-1.04205	-3.01678
-0.992077	1.53003
-1.05206	-3.01895
-1.00202	1.5369
-1.06205	-3.02302
-1.01208	1.53868
-1.07203	-3.03015
-1.02208	1.53652
-1.08206	-3.02391
-1.03201	1.53474
-1.09209	-3.03727
-1.04204	1.53958
-1.10204	-3.04644
-1.052	1.54339
-1.11203	-3.05293
-1.06209	1.53894
-1.12215	-3.08475
-1.07199	1.53448