File: VFSWV_data_prep/Example_data/CoPc(OMe)8_VFSWV_txt_data/CoPc(OMe)8_CNT_VFSWV_scans_05_4_C02.txt
Ewe/V	<I>/mA
-0.122106	-1.67287
-0.072114	3.37184
-0.132075	-3.79832
-0.0821094	2.923
-0.142109	-3.91764
-0.0921315	2.87967
-0.152066	-3.93196
-0.102085	2.85447
-0.162111	-3.94876
-0.112092	2.85905
-0.17206	-3.95964
-0.122099	2.84702
-0.182079	-3.97702
-0.132102	2.85046
-0.192025	-3.99935
-0.142082	2.84778
-0.202081	-4.02207
-0.152096	2.85122
-0.212099	-4.06007
-0.16208	2.86554
-0.222072	-4.09157
-0.172045	2.87394
-0.232048	-4.13109
-0.182048	2.88902
-0.24207	-4.16698
-0.192055	2.90792
-0.25205	-4.21566
-0.202035	2.91976
-0.262095	-4.26148
-0.212057	2.9377
-0.272076	-4.29565
-0.222034	2.94954
-0.282128	-4.34701
-0.232082	2.96481
-0.292101	-4.37966
-0.24199	2.97131
-0.302153	-4.41631
-0.252035	2.97799
-0.312115	-4.44228
-0.261992	2.98104
-0.322167	-4.47168
-0.272034	2.98868
-0.332128	-4.50719
-0.282132	2.97589
-0.342112	-4.52437
-0.292135	2.97646
-0.352176	-4.55453
-0.302153	2.97589
-0.362111	-4.57992
-0.312107	2.98486
-0.372117	-4.61353
-0.32211	2.98505
-0.38214	-4.64808
-0.332117	2.98868
-0.39215	-4.67214
-0.342101	2.99841
-0.402111	-4.71356
-0.352081	3.00567
-0.412091	-4.76263
-0.362065	3.01789
-0.422095	-4.81895
-0.372114	3.03011
-0.432124	-4.88214
-0.382094	3.0534
-0.442078	-4.94228
-0.392082	3.06848
-0.452081	-5.00337
-0.4021	3.08967
-0.462137	-5.06924
-0.412088	3.11373
-0.472117	-5.15209
-0.422075	3.13988
-0.482094	-5.23934
-0.432094	3.1626
-0.492123	-5.33652
-0.442066	3.19219
-0.502107	-5.45794
-0.452039	3.24469
-0.512007	-5.59272
-0.462133	3.27906
-0.522075	-5.75557
-0.472083	3.34817
-0.532101	-5.93771
-0.482052	3.4106
-0.542051	-6.15344
-0.492085	3.46902
-0.552123	-6.39456
-0.502043	3.53679
-0.562072	-6.66223
-0.512042	3.59273
-0.572087	-6.9339
-0.522083	3.63511
-0.582078	-7.23115
-0.532075	3.63893
-0.592112	-7.53509
-0.542089	3.64141
-0.602027	-7.84685
-0.552069	3.60705
-0.612023	-8.13494
-0.562026	3.55684
-0.62206	-8.42933
-0.572052	3.47226
-0.632063	-8.70959
-0.582074	3.37929
-0.642024	-8.94995
-0.592066	3.27963
-0.652004	-9.19088
-0.602073	3.18322
-0.662034	-9.38619
-0.612034	3.08547
-0.672067	-9.5477
-0.622014	2.9883
-0.682025	-9.67447
-0.632059	2.91346
-0.692074	-9.75637
-0.642078	2.85828
-0.702023	-9.78673
-0.652054	2.81304
-0.71216	-9.802
-0.662107	2.80521
-0.722171	-9.73652
-0.672079	2.80177
-0.732166	-9.63171
-0.682059	2.82564
-0.742154	-9.48642
-0.692093	2.85809
-0.752084	-9.30467
-0.702119	2.86898
-0.762095	-9.10669
-0.712106	2.92281
-0.772102	-8.89898
-0.722125	2.944
-0.782124	-8.67809
-0.732147	2.99479
-0.792135	-8.46923
-0.742081	3.00758
-0.802118	-8.27526
-0.752134	3.00949
-0.812102	-8.10134
-0.762122	2.99632
-0.822128	-7.9488
-0.772079	2.99211
-0.832124	-7.82738
-0.782151	2.97474
-0.842123	-7.70595
-0.792157	2.9587
-0.852149	-7.62233
-0.802103	2.92377
-0.86206	-7.54444
-0.812118	2.91136
-0.872113	-7.48946
-0.822132	2.8999
-0.882078	-7.42646
-0.832093	2.88348
-0.89205	-7.40087
-0.842104	2.86306
-0.902084	-7.37033
-0.852107	2.85027
-0.912114	-7.35773
-0.862106	2.82907
-0.922071	-7.35162
-0.872121	2.81437
-0.932116	-7.34493
-0.882124	2.80636
-0.942058	-7.35104
-0.892096	2.77925
-0.952084	-7.36422
-0.902122	2.76626
-0.962057	-7.37281
-0.912099	2.7529
-0.972086	-7.39362
-0.922079	2.7361
-0.982059	-7.41004
-0.932093	2.73171
-0.992081	-7.43295
-0.942131	2.70116
-1.00205	-7.44975
-0.952145	2.71128
-1.01208	-7.46674
-0.962037	2.71682
-1.02206	-7.46617
-0.97209	2.70803
-1.03209	-7.48583
-0.982063	2.7256
-1.04205	-7.48564
-0.992092	2.72159
-1.05204	-7.48048
-1.00208	2.74183
-1.06203	-7.47151
-1.01211	2.73114
-1.07204	-7.48583
-1.02211	2.74469
-1.08204	-7.47915
-1.03205	2.74851
-1.09207	-7.47857
-1.04209	2.74984
-1.1021	-7.47437
-1.05203	2.74908
-1.11205	-7.47609
-1.06207	2.74679
-1.12209	-7.49957
-1.07205	2.734