File: VFSWV_data_prep/Example_data/CoPc(OMe)8_VFSWV_txt_data/CoPc(OMe)8_CNT_VFSWV_scans_43_42_C02.txt
Ewe/V	<I>/mA
-0.122061	-0.00313833
-0.0720758	0.0258382
-0.132079	-0.0156538
-0.0821285	0.0288928
-0.142047	-0.0169266
-0.0921201	0.0212987
-0.152081	-0.0204903
-0.102066	0.0159531
-0.162054	-0.0221025
-0.112077	0.0217229
-0.17203	-0.0277026
-0.122053	0.0173531
-0.182071	-0.026939
-0.132064	0.0195592
-0.192017	-0.0281269
-0.142055	0.0145106
-0.20205	-0.0276602
-0.152066	0.0214684
-0.212046	-0.0315209
-0.162046	0.0165895
-0.221999	-0.0265147
-0.172022	0.0145955
-0.232048	-0.0418727
-0.18209	0.0153591
-0.24204	-0.045097
-0.19204	0.0190077
-0.252024	-0.0427636
-0.20207	0.0061104
-0.262053	-0.0501032
-0.212061	0.011159
-0.272049	-0.0471759
-0.222041	0.01485
-0.282109	-0.0447152
-0.232067	0.010056
-0.292177	-0.0501457
-0.242059	0.0125591
-0.302092	-0.0491274
-0.251989	0.0218078
-0.312076	-0.0496366
-0.262034	0.0133227
-0.322125	-0.0506123
-0.272007	0.0145106
-0.332136	-0.0523094
-0.282155	0.0112863
-0.342089	-0.0534973
-0.292097	0.0219351
-0.352146	-0.0562973
-0.3021	0.0142561
-0.362156	-0.0607944
-0.312099	0.0158258
-0.372137	-0.0578247
-0.322121	0.0144682
-0.382101	-0.0565519
-0.332113	0.0160379
-0.392127	-0.0579944
-0.342169	0.0199411
-0.402119	-0.0638066
-0.352142	0.0189653
-0.412091	-0.0552791
-0.362092	0.0181592
-0.422125	-0.0583762
-0.37211	0.0226987
-0.43209	-0.0554064
-0.382067	0.021129
-0.442036	-0.0561701
-0.392131	0.0186683
-0.452107	-0.0575701
-0.402081	0.0226563
-0.462114	-0.0698735
-0.412076	0.00984383
-0.472072	-0.069025
-0.422106	0.0219775
-0.482117	-0.0702553
-0.432082	0.0221472
-0.492097	-0.0733948
-0.442051	0.0246079
-0.502046	-0.0787404
-0.452035	0.0243533
-0.512023	-0.0798859
-0.462095	0.0251594
-0.522091	-0.0909164
-0.472064	0.026517
-0.532017	-0.087777
-0.482086	0.0280443
-0.542058	-0.0918074
-0.492043	0.0245654
-0.552092	-0.102117
-0.502001	0.0267291
-0.562023	-0.109584
-0.512065	0.0352991
-0.572022	-0.131008
-0.522041	0.0344506
-0.58199	-0.145094
-0.532017	0.0360203
-0.592051	-0.161767
-0.542039	0.0514207
-0.601962	-0.191337
-0.552035	0.0587603
-0.612042	-0.217344
-0.562003	0.0656332
-0.622033	-0.249206
-0.572037	0.0906218
-0.632017	-0.275637
-0.582055	0.111495
-0.642039	-0.298843
-0.591948	0.131477
-0.652019	-0.31925
-0.602062	0.151502
-0.662049	-0.328456
-0.611992	0.172672
-0.672045	-0.328032
-0.622014	0.18523
-0.682029	-0.321244
-0.632002	0.193885
-0.69199	-0.314583
-0.642032	0.19397
-0.702027	-0.298928
-0.651993	0.195073
-0.712045	-0.281619
-0.662007	0.180606
-0.722087	-0.266685
-0.672041	0.167581
-0.732109	-0.253066
-0.682029	0.156678
-0.742085	-0.241739
-0.692016	0.135253
-0.752115	-0.233635
-0.702092	0.122823
-0.762091	-0.226084
-0.712064	0.113277
-0.772041	-0.219465
-0.722087	0.0971553
-0.782074	-0.21692
-0.73204	0.0823064
-0.792054	-0.210938
-0.742123	0.0820518
-0.802092	-0.210047
-0.752103	0.0707242
-0.812099	-0.206186
-0.762118	0.0654635
-0.82209	-0.20695
-0.772121	0.0618149
-0.832067	-0.204998
-0.782025	0.0607967
-0.842031	-0.20275
-0.792058	0.0495964
-0.852118	-0.205635
-0.802111	0.0567663
-0.862083	-0.203386
-0.812114	0.0492146
-0.87209	-0.199865
-0.822121	0.0497237
-0.882101	-0.210301
-0.832109	0.0541784
-0.892081	-0.206653
-0.842047	0.046966
-0.902096	-0.219296
-0.852046	0.0529904
-0.912045	-0.207756
-0.862072	0.0462024
-0.92201	-0.20835
-0.872102	0.0430629
-0.932005	-0.212253
-0.882101	0.0523116
-0.942073	-0.214289
-0.892081	0.0476448
-0.952046	-0.208095
-0.902069	0.0494267
-0.962091	-0.20398
-0.912079	0.0477297
-0.972075	-0.21272
-0.922079	0.0531601
-0.982032	-0.200841
-0.93204	0.0492146
-0.992073	-0.203895
-0.942024	0.0445478
-1.0021	-0.208944
-0.952038	0.0474751
-1.01205	-0.207501
-0.962064	0.0481115
-1.02207	-0.211023
-0.97201	0.0481539
-1.03207	-0.211532
-0.982063	0.0436569
-1.042	-0.212889
-0.992058	0.0477721
-1.05207	-0.214459
-1.002	0.0433175
-1.06203	-0.217556
-1.01202	0.040178
-1.07205	-0.216962
-1.022	0.0411962
-1.08198	-0.219932
-1.03204	0.043275
-1.092	-0.22252
-1.042	0.0444205
-1.10203	-0.228884
-1.05206	0.036487
-1.11194	-0.23389
-1.06203	0.0407295
-1.12211	-0.238557
-1.07201	0.041281