File: VFSWV_data_prep/Example_data/CoPc(OMe)8_VFSWV_txt_data/CoPc(OMe)8_CNT_VFSWV_scans_65_64_C02.txt
Ewe/V	<I>/mA
-0.122057	0.000679951
-0.0720759	0.0118465
-0.132086	0.00118646
-0.0820903	0.0117919
-0.142051	0.00240987
-0.0920208	0.0112075
-0.152031	0.0028852
-0.102119	0.00745156
-0.16208	0.00167738
-0.112107	0.00867497
-0.172083	-0.000426572
-0.122114	0.00663336
-0.182063	-0.00186038
-0.13206	0.00663336
-0.192067	-0.00264741
-0.142086	0.00727234
-0.20205	-0.00238247
-0.152073	0.00642296
-0.212042	-0.00136166
-0.16205	0.00828535
-0.222053	0.00230857
-0.172018	0.0101711
-0.232063	-0.00287339
-0.182052	0.00904121
-0.242074	-0.00272534
-0.19207	0.00732688
-0.252024	-0.00598257
-0.20202	0.00572944
-0.26205	-0.00574879
-0.212057	0.00831652
-0.272064	-0.00147855
-0.22203	0.00808275
-0.282151	-0.00373835
-0.232018	0.00439693
-0.29215	-0.00622413
-0.242086	0.00573723
-0.302134	0.000578649
-0.252096	0.0117218
-0.312141	0.000360462
-0.262061	0.01134
-0.322148	0.000594234
-0.272018	0.0109815
-0.332121	0.002067
-0.282113	0.0115036
-0.342143	0.0003215
-0.292192	0.0106153
-0.352111	0.00265143
-0.302115	0.0131322
-0.362168	0.00123321
-0.312103	0.0144258
-0.372125	0.00129555
-0.322114	0.0131712
-0.382132	0.00134231
-0.332079	0.0152362
-0.392124	0.00029033
-0.342135	0.0156102
-0.402115	0.00224623
-0.352127	0.0153375
-0.412126	0.000181236
-0.362118	0.0116595
-0.422117	0.00161504
-0.372114	0.0182908
-0.43209	0.00717103
-0.382079	0.0163739
-0.442043	0.0047398
-0.392089	0.0252105
-0.452062	0.00810612
-0.402073	0.0150336
-0.462099	0.00470863
-0.412076	0.0172544
-0.472102	0.00267481
-0.422068	0.0189765
-0.48209	0.00444369
-0.432136	0.0161791
-0.492024	0.000220198
-0.442085	0.0144492
-0.502046	0.00334496
-0.452104	0.0190233
-0.512038	0.00476318
-0.462107	0.0181194
-0.52206	-0.00372276
-0.472075	0.0163895
-0.532052	-0.000823985
-0.482094	0.0119478
-0.542081	-0.000520081
-0.492116	0.0162882
-0.552039	-0.00253832
-0.502092	0.0153375
-0.562095	-0.00181362
-0.512065	0.0167245
-0.572052	-0.00354354
-0.52203	0.0181661
-0.582021	-0.00745533
-0.532055	0.012953
-0.592009	-0.00965279
-0.54207	0.0153375
-0.601993	-0.00486046
-0.552107	0.0147764
-0.611992	-0.00521891
-0.562061	0.0183843
-0.622033	-0.00585009
-0.572056	0.0142777
-0.632067	-0.0111645
-0.582029	0.0197558
-0.642016	-0.00811769
-0.592055	0.0203402
-0.651989	-0.00701116
-0.602039	0.0248676
-0.662107	-0.0115931
-0.612049	0.0171219
-0.672048	-0.00793846
-0.622056	0.0232
-0.681987	-0.00846055
-0.632032	0.0201376
-0.692081	-0.0145308
-0.642039	0.0222416
-0.702031	-0.014414
-0.652039	0.0173635
-0.712125	-0.0154581
-0.662007	0.0206675
-0.722102	-0.0150296
-0.672018	0.0199272
-0.732082	-0.0118658
-0.682025	0.0198181
-0.742089	-0.0179205
-0.692012	0.0153531
-0.752103	-0.0185517
-0.702119	0.0167323
-0.762083	-0.0100658
-0.712125	0.0199818
-0.772083	-0.0135802
-0.722102	0.0165453
-0.78209	-0.0114996
-0.732151	0.01787
-0.792104	-0.0183258
-0.742123	0.0201688
-0.802084	-0.017905
-0.752077	0.018283
-0.812167	-0.0171413
-0.762061	0.0200051
-0.822094	-0.0165335
-0.772109	0.0167479
-0.832059	-0.0140867
-0.782097	0.0155557
-0.842108	-0.0202583
-0.79215	0.0181116
-0.852107	-0.017001
-0.802099	0.0175973
-0.862068	-0.0169231
-0.812064	0.0165453
-0.872098	-0.0177569
-0.82206	0.0184545
-0.88204	-0.019744
-0.832078	0.0183609
-0.892085	-0.0195725
-0.842077	0.0146907
-0.902096	-0.0170712
-0.852092	0.0149011
-0.912064	-0.016401
-0.862068	0.0179635
-0.922029	-0.020718
-0.872071	0.0187506
-0.932063	-0.0183725
-0.882078	0.019148
-0.94202	-0.0193466
-0.892089	0.0167947
-0.952042	-0.0176946
-0.902061	0.0162024
-0.962072	-0.0149906
-0.91203	0.014831
-0.972044	-0.0171725
-0.922063	0.016218
-0.982036	-0.01351
-0.932024	0.0186181
-0.99205	-0.0175621
-0.94207	0.0164518
-1.00204	-0.0206323
-0.952011	0.0187895
-1.01207	-0.0173751
-0.962114	0.0186882
-1.02206	-0.0225492
-0.97206	0.0223117
-1.03203	-0.0221362
-0.982032	0.0158206
-1.04206	-0.0236012
-0.992024	0.0177376
-1.05211	-0.0174998
-1.00204	0.0163895
-1.06206	-0.018318
-1.01203	0.0150959
-1.07206	-0.0245675
-1.02204	0.0132179
-1.08206	-0.0236947
-1.03201	0.0181973
-1.09203	-0.0243415
-1.04208	0.0131011
-1.102	-0.0237493
-1.05205	0.0112543
-1.11208	-0.0290247
-1.062	0.0115114
-1.12215	-0.0330067
-1.07204	0.0138881