File: VFSWV_data_prep/Example_data/CoPc(OMe)8_VFSWV_txt_data/CoPc(OMe)8_CNT_VFSWV_scans_59_58_C02.txt
Ewe/V	<I>/mA
-0.122064	-0.0107749
-0.0720797	0.00609293
-0.132056	-0.0121225
-0.0821018	0.00142115
-0.142036	-0.0109883
-0.092101	0.000253201
-0.152058	-0.00929251
-0.102062	-0.00184685
-0.162054	-0.0152445
-0.11208	-0.00320571
-0.172083	-0.0134702
-0.122053	-0.00384584
-0.182014	-0.0175131
-0.132052	-0.00667586
-0.192051	-0.0171986
-0.142101	-0.0007126
-0.202066	-0.0114936
-0.152054	0.00154468
-0.21205	-0.0192201
-0.162096	-0.00850639
-0.222072	-0.0183104
-0.17203	-0.0064288
-0.232056	-0.0196131
-0.182021	-0.00504748
-0.242032	-0.0209046
-0.192051	-0.003756
-0.252031	-0.0202532
-0.202047	-0.00410413
-0.262031	-0.0211629
-0.212004	-0.00544053
-0.271984	-0.02351
-0.222087	-0.00891068
-0.282094	-0.0191077
-0.232109	-0.00402552
-0.292108	-0.0248913
-0.242044	-0.00670955
-0.302096	-0.024779
-0.252008	-0.00243083
-0.312092	-0.0250598
-0.262008	-0.00763043
-0.322137	-0.0223084
-0.272014	-0.00766412
-0.332079	-0.0245993
-0.282147	0.00167944
-0.342112	-0.0162553
-0.292078	-0.000117397
-0.3521	-0.0206463
-0.302069	0.00383565
-0.362103	-0.0167943
-0.312092	-0.00322818
-0.372075	-0.0214436
-0.322121	-0.00352016
-0.38209	-0.0207474
-0.332117	0.00155591
-0.392097	-0.0165248
-0.342097	-0.00659725
-0.402092	-0.0210169
-0.352054	-0.00109443
-0.412057	-0.0185575
-0.362095	-0.00458704
-0.42203	-0.0201072
-0.372095	-0.00266666
-0.432067	-0.0153905
-0.38209	-0.00194793
-0.44212	-0.0206575
-0.392051	-0.000196008
-0.452104	-0.0185687
-0.402104	-0.00124042
-0.462053	-0.0211292
-0.412091	0.00109547
-0.472075	-0.0185125
-0.422014	-0.00380092
-0.482052	-0.024094
-0.432063	0.00181421
-0.492051	-0.0143124
-0.442017	0.00271263
-0.502058	-0.0256662
-0.452096	0.00565495
-0.51208	-0.0210506
-0.462072	0.00359982
-0.522049	-0.0229934
-0.472064	-0.000611528
-0.532109	-0.018243
-0.482071	0.000331813
-0.542058	-0.0231956
-0.492097	-0.00106074
-0.552035	-0.0222298
-0.502073	0.000253202
-0.562007	-0.0280133
-0.51208	0.000545188
-0.572091	-0.0272834
-0.522026	0.00219603
-0.582025	-0.0267106
-0.532067	-0.000959666
-0.592058	-0.0326739
-0.542066	0.00453193
-0.602058	-0.0278786
-0.551989	0.00535173
-0.612042	-0.0338306
-0.562072	0.0082716
-0.622003	-0.028339
-0.572064	0.00338644
-0.632048	-0.034044
-0.582063	0.00263401
-0.642005	-0.0370874
-0.592036	0.00297092
-0.652004	-0.0399736
-0.602054	0.00368966
-0.661996	-0.0420287
-0.612068	0.00301584
-0.672056	-0.0427025
-0.622079	0.00410518
-0.682059	-0.0476438
-0.632082	0.00530681
-0.692013	-0.0455999
-0.642077	0.00406025
-0.702019	-0.0448924
-0.652027	0.00349874
-0.712122	-0.0462849
-0.661954	0.00532927
-0.722079	-0.0451058
-0.672026	0.00528435
-0.732101	-0.0488342
-0.681983	0.00744056
-0.742165	-0.0461277
-0.692001	0.00499237
-0.752103	-0.0454988
-0.702122	0.00188159
-0.762072	-0.0477673
-0.712152	0.00295969
-0.772094	-0.0498562
-0.722086	0.00347628
-0.782082	-0.0469026
-0.732124	0.00116285
-0.792089	-0.0481829
-0.742077	0.00600309
-0.802099	-0.0456224
-0.752138	0.00536296
-0.812034	-0.0440614
-0.762041	0.00364474
-0.822056	-0.0491487
-0.772102	0.00593571
-0.832047	-0.0448699
-0.782086	0.0057111
-0.842054	-0.04624
-0.792066	-0.000184778
-0.852111	-0.0507209
-0.802038	0.00678921
-0.862091	-0.0463636
-0.812118	0.004487
-0.872121	-0.0460828
-0.822075	0.00391426
-0.882078	-0.0465882
-0.83207	0.00449823
-0.892115	-0.0486433
-0.842043	0.00206127
-0.902042	-0.0485647
-0.852126	0.00132007
-0.912068	-0.0467678
-0.86206	0.000331813
-0.922052	-0.0485647
-0.872033	0.00583463
-0.932097	-0.0483401
-0.882093	0.000129669
-0.942077	-0.0482053
-0.892077	0.00338644
-0.952088	-0.0508444
-0.902054	0.00264524
-0.962087	-0.0513498
-0.912057	0.00319553
-0.972082	-0.0490476
-0.922018	0.00465546
-0.98204	-0.0467678
-0.93212	0.00467792
-0.992016	-0.0460267
-0.942081	0.00480145
-1.00203	-0.047116
-0.952038	0.00577848
-1.01206	-0.0505861
-0.962003	0.00439716
-1.02202	-0.0484524
-0.972056	0.00365597
-1.03201	-0.0519787
-0.982047	0.00712611
-1.04207	-0.0489465
-0.992058	0.00328537
-1.05203	-0.0515969
-1.00201	0.00427363
-1.06208	-0.0511926
-1.01201	0.00371212
-1.07205	-0.0505861
-1.02204	0.0036672
-1.08203	-0.050092
-1.03203	0.00298215
-1.09207	-0.0561114
-1.04207	0.00179174
-1.102	-0.0537531
-1.05206	0.00299338
-1.11198	-0.0574703
-1.06205	0.00251048
-1.12207	-0.0602329
-1.07206	0.00246556