File: VFSWV_data_prep/Example_data/CoPc(OMe)8_VFSWV_txt_data/CoPc(OMe)8_CNT_VFSWV_scans_11_10_C02.txt
Ewe/V	<I>/mA
-0.122156	-0.432313
-0.072175	1.03976
-0.132113	-1.18337
-0.0821438	0.970779
-0.142082	-1.19877
-0.0921277	0.956778
-0.152066	-1.21544
-0.102108	0.941632
-0.162103	-1.21824
-0.112035	0.942778
-0.172099	-1.23403
-0.122129	0.940869
-0.182075	-1.24994
-0.132075	0.93145
-0.192116	-1.2675
-0.142132	0.945196
-0.202027	-1.28863
-0.152108	0.951687
-0.212111	-1.30925
-0.162115	0.958051
-0.222076	-1.33928
-0.172095	0.967597
-0.23209	-1.36563
-0.182102	0.982488
-0.242101	-1.39605
-0.192089	1.00005
-0.252073	-1.42838
-0.202066	1.02602
-0.262065	-1.46172
-0.21208	1.0334
-0.272083	-1.49621
-0.222072	1.04867
-0.282132	-1.52727
-0.232071	1.07133
-0.292127	-1.54573
-0.242059	1.08584
-0.302157	-1.57373
-0.252066	1.10722
-0.312095	-1.59244
-0.262053	1.10824
-0.322179	-1.61624
-0.272022	1.12262
-0.332113	-1.64207
-0.282166	1.13026
-0.342139	-1.65404
-0.292185	1.14451
-0.352157	-1.68
-0.302165	1.14795
-0.362179	-1.69897
-0.312145	1.15826
-0.372117	-1.73028
-0.322156	1.16767
-0.382166	-1.75459
-0.332166	1.18142
-0.392116	-1.78475
-0.342147	1.18855
-0.402134	-1.82153
-0.352134	1.2
-0.412133	-1.8559
-0.362126	1.21922
-0.422156	-1.90006
-0.372121	1.24799
-0.432094	-1.94945
-0.382094	1.2667
-0.442127	-2.00506
-0.392139	1.29546
-0.452111	-2.05852
-0.4021	1.32448
-0.462091	-2.12127
-0.412126	1.36737
-0.472098	-2.19942
-0.422083	1.40963
-0.482166	-2.2824
-0.432071	1.4529
-0.492085	-2.38371
-0.442127	1.50165
-0.502104	-2.50081
-0.452092	1.57483
-0.512057	-2.6375
-0.462103	1.65323
-0.522171	-2.80334
-0.472056	1.76384
-0.532109	-3.00202
-0.482101	1.89289
-0.542089	-3.23735
-0.492078	2.03964
-0.552062	-3.50501
-0.502134	2.20345
-0.562107	-3.79622
-0.512099	2.39105
-0.572075	-4.11416
-0.52211	2.58999
-0.582109	-4.43668
-0.532082	2.78115
-0.592089	-4.76034
-0.542081	2.96838
-0.602065	-5.0756
-0.552023	3.12353
-0.612057	-5.37636
-0.562053	3.25055
-0.622079	-5.65331
-0.572064	3.35046
-0.632097	-5.89526
-0.58209	3.41741
-0.642074	-6.11418
-0.592074	3.46908
-0.652019	-6.27251
-0.602077	3.48092
-0.662061	-6.42167
-0.61208	3.48856
-0.672087	-6.51446
-0.622045	3.4771
-0.68204	-6.56193
-0.632071	3.46208
-0.692054	-6.56931
-0.642047	3.43981
-0.701989	-6.51662
-0.652019	3.41219
-0.712095	-6.447
-0.662068	3.38648
-0.722113	-6.31527
-0.672067	3.3371
-0.732116	-6.15961
-0.682021	3.27702
-0.742119	-5.97913
-0.692058	3.2074
-0.752122	-5.77091
-0.702199	3.1206
-0.762171	-5.5506
-0.71211	3.03698
-0.772125	-5.32901
-0.722155	2.93185
-0.782109	-5.12486
-0.732147	2.83868
-0.792089	-4.92274
-0.742138	2.7305
-0.802099	-4.75881
-0.752084	2.63122
-0.812083	-4.5973
-0.762156	2.53538
-0.822155	-4.45844
-0.772113	2.45444
-0.832154	-4.33931
-0.782082	2.37845
-0.8421	-4.238
-0.792104	2.30298
-0.852138	-4.16532
-0.802122	2.25321
-0.862133	-4.09952
-0.812133	2.20281
-0.872136	-4.05307
-0.822117	2.15979
-0.882143	-4.01756
-0.832116	2.12899
-0.892138	-3.98803
-0.842135	2.09463
-0.902115	-3.97734
-0.852122	2.07515
-0.912099	-3.97008
-0.862064	2.05517
-0.92209	-3.96703
-0.87214	2.03595
-0.932086	-3.9739
-0.882101	2.0259
-0.942077	-3.96664
-0.892131	2.01241
-0.952099	-3.98294
-0.902069	2.00286
-0.962083	-3.98408
-0.912118	2.00884
-0.972079	-4.00483
-0.922125	1.99701
-0.982093	-4.01145
-0.932124	2.00362
-0.992081	-4.02736
-0.942134	2.00732
-1.00208	-4.03677
-0.95205	2.01495
-1.01216	-4.03194
-0.962137	2.02208
-1.0221	-4.02914
-0.972033	2.03863
-1.0321	-4.03486
-0.982082	2.04486
-1.04205	-4.04085
-0.992058	2.04741
-1.05209	-4.03257
-1.00209	2.05173
-1.06214	-4.04466
-1.01206	2.04626
-1.07209	-4.04377
-1.02214	2.04435
-1.08209	-4.04848
-1.03207	2.05606
-1.09207	-4.04288
-1.04209	2.04983
-1.1021	-4.05663
-1.05211	2.04168
-1.11206	-4.06439
-1.06208	2.04155
-1.12222	-4.09099
-1.07202	2.05657