File: VFSWV_data_prep/Example_data/CoPc(OMe)8_VFSWV_txt_data/CoPc(OMe)8_CNT_VFSWV_scans_57_56_C02.txt
Ewe/V	<I>/mA
-0.122145	-0.00390199
-0.0721064	0.00819802
-0.132044	-0.00486315
-0.0820903	0.00584122
-0.142013	-0.00375716
-0.0920514	0.00509073
-0.152058	-0.00392832
-0.102035	0.0112395
-0.162038	0.00169377
-0.112073	0.00769769
-0.172041	-0.00525814
-0.12208	0.00194393
-0.182041	-0.0131975
-0.132125	0.00124611
-0.192013	-0.00998491
-0.142078	0.00394524
-0.202081	-0.00889209
-0.15202	0.00240476
-0.21205	-0.0146985
-0.162107	-0.00029437
-0.222053	-0.0178716
-0.172022	0.00382674
-0.232029	-0.0171475
-0.182048	-0.000649866
-0.242009	-0.017503
-0.192025	0.000943281
-0.252016	-0.0206498
-0.202058	-0.000399702
-0.262008	-0.0191751
-0.212057	-0.00195335
-0.272003	-0.0211501
-0.222003	-0.00111069
-0.28209	-0.0213213
-0.232037	-0.0057848
-0.29212	-0.0225063
-0.242044	0.00357658
-0.302115	-0.0207288
-0.252062	-0.00450765
-0.312126	-0.0211369
-0.262042	-0.00266434
-0.322133	-0.0153832
-0.272011	-0.00438915
-0.332067	-0.0197281
-0.282155	-0.000676199
-0.342089	-0.019083
-0.292139	0.00216777
-0.352096	-0.0208604
-0.302176	-0.00163735
-0.362114	-0.0241389
-0.312084	0.000521953
-0.372102	-0.0169368
-0.322091	-0.000702531
-0.382082	-0.0195438
-0.332109	0.000693117
-0.392127	-0.019241
-0.342089	0.00129878
-0.402088	-0.0204391
-0.352104	-0.00245368
-0.412069	-0.0199388
-0.362114	-0.00107119
-0.42211	-0.0207024
-0.372079	-0.000175872
-0.432036	-0.0203206
-0.382147	-0.00129502
-0.44207	-0.0233357
-0.392082	0.0021941
-0.452024	-0.0247709
-0.402077	0.000732617
-0.46203	-0.0213213
-0.412076	-0.000123205
-0.472083	-0.0235991
-0.422083	-0.00147935
-0.482105	-0.0251527
-0.432086	0.00229943
-0.492055	-0.0257715
-0.442043	0.00245743
-0.502073	-0.0226906
-0.45202	0.000732617
-0.512046	-0.0253239
-0.462091	0.00169377
-0.522041	-0.0271145
-0.472087	-0.00128186
-0.532036	-0.0321178
-0.482105	0.0021941
-0.542074	-0.0255477
-0.492036	-0.00113703
-0.55205	-0.0291817
-0.502084	0.000600952
-0.562019	-0.0275754
-0.512091	0.00104861
-0.572052	-0.0306036
-0.522049	0.00426124
-0.582021	-0.0314463
-0.532036	0.00689454
-0.592066	-0.0298137
-0.5421	0.00898801
-0.602019	-0.0332896
-0.55202	0.00894851
-0.612034	-0.0363837
-0.561965	0.0074607
-0.622041	-0.0386615
-0.572091	0.00807952
-0.631998	-0.042493
-0.582036	0.0120295
-0.642028	-0.0429407
-0.592055	0.0121348
-0.652008	-0.0437965
-0.602073	0.0129775
-0.662026	-0.0438491
-0.612019	0.00933034
-0.672026	-0.0460348
-0.621991	0.0150709
-0.682002	-0.0484706
-0.632002	0.0135831
-0.692012	-0.0482073
-0.642013	0.0112921
-0.701997	-0.0474831
-0.652042	0.0151104
-0.712095	-0.0507616
-0.662034	0.0148866
-0.722079	-0.0501032
-0.672052	0.0138991
-0.73209	-0.0492342
-0.682002	0.0109103
-0.74207	-0.0470091
-0.692043	0.0049064
-0.752061	-0.0557253
-0.702084	0.012227
-0.76208	-0.0524469
-0.712095	0.00897484
-0.772109	-0.0525127
-0.722102	0.0110947
-0.78212	-0.053803
-0.732078	0.0116345
-0.792074	-0.0493132
-0.742104	0.00825069
-0.802115	-0.0448761
-0.752088	0.0147154
-0.812106	-0.0445733
-0.76208	0.0118846
-0.822056	-0.0549748
-0.772067	0.00570955
-0.832086	-0.0563968
-0.782082	0.00739486
-0.84207	-0.0557253
-0.792077	0.00915917
-0.852092	-0.054514
-0.802057	0.00555155
-0.862053	-0.0552118
-0.812072	0.00414274
-0.872086	-0.0598728
-0.822079	0.00564372
-0.882093	-0.0579768
-0.832109	0.00303675
-0.892127	-0.0543692
-0.842119	0.00667071
-0.902111	-0.0552777
-0.852077	0.0071447
-0.91203	-0.0551855
-0.862118	0.0048274
-0.922079	-0.0543297
-0.872147	0.00725003
-0.932086	-0.0560018
-0.882124	0.00484056
-0.942047	-0.0583323
-0.892062	0.0047484
-0.952073	-0.054514
-0.902073	0.00530139
-0.962068	-0.0577266
-0.912091	0.00291826
-0.972052	-0.0532895
-0.92209	0.00182544
-0.982028	-0.0576608
-0.93207	0.00545939
-0.992066	-0.0572526
-0.942096	0.000153291
-1.00203	-0.0582533
-0.952053	0.00365558
-1.01211	-0.0616503
-0.962049	-0.00033387
-1.02205	-0.0590696
-0.972014	0.00372141
-1.03199	-0.0580426
-0.981986	0.00434024
-1.04211	-0.0625982
-0.992081	0.00432707
-1.05206	-0.0667852
-1.00205	-0.00437598
-1.06206	-0.0629801
-1.01204	-0.00196652
-1.07203	-0.064876
-1.02199	-0.000847363
-1.08203	-0.0752907
-1.03201	0.00132511
-1.09202	-0.0687338
-1.042	-0.003507
-1.10208	-0.071275
-1.05205	-0.00191385
-1.11201	-0.0713408
-1.06204	-0.00242734
-1.12209	-0.0738424
-1.072	-0.000926362