File: VFSWV_data_prep/Example_data/CoPc(OMe)8_VFSWV_txt_data/CoPc(OMe)8_CNT_VFSWV_scans_40_39_C02.txt
Ewe/V	<I>/mA
-0.122106	-0.00657479
-0.0721216	0.03514
-0.13206	-0.0224207
-0.0821285	0.0260715
-0.142086	-0.0248071
-0.0920781	0.0251647
-0.152062	-0.0264299
-0.102058	0.0270261
-0.162084	-0.0271458
-0.112069	0.0242101
-0.172038	-0.025523
-0.122095	0.0222533
-0.182052	-0.0286731
-0.132094	0.0298421
-0.192112	-0.0331596
-0.142101	0.027933
-0.202062	-0.040653
-0.152035	0.0239238
-0.212023	-0.0321096
-0.162038	0.0260715
-0.222072	-0.0353074
-0.17206	0.0202487
-0.232029	-0.0413212
-0.18206	0.0166213
-0.242017	-0.0433258
-0.192025	0.0222055
-0.25205	-0.0490532
-0.202066	0.0198668
-0.262019	-0.0485759
-0.212038	0.0254033
-0.272041	-0.0445667
-0.222144	0.0215373
-0.282193	-0.0477645
-0.232056	0.0200577
-0.292162	-0.0511055
-0.242024	0.0204396
-0.302131	-0.0567375
-0.252028	0.024401
-0.312103	-0.0544465
-0.262038	0.0192464
-0.322087	-0.0567375
-0.272106	0.0157622
-0.332109	-0.0615104
-0.282098	0.0234465
-0.342093	-0.0643741
-0.292173	0.0209646
-0.352085	-0.0651855
-0.302157	0.0106552
-0.362107	-0.0649468
-0.312099	0.025642
-0.372144	-0.0653286
-0.322087	0.0215373
-0.382101	-0.0692424
-0.33214	0.0203918
-0.392097	-0.075113
-0.342108	0.0197714
-0.402043	-0.0705311
-0.352081	0.0173849
-0.412038	-0.077404
-0.362091	0.0168599
-0.422079	-0.0756857
-0.372125	0.0258806
-0.432082	-0.0794563
-0.382067	0.0193418
-0.44212	-0.0749221
-0.392112	0.0269784
-0.452115	-0.0778812
-0.402134	0.0228737
-0.46211	-0.0794086
-0.412111	0.0292694
-0.472041	-0.0804586
-0.422064	0.0235419
-0.482063	-0.0868065
-0.432063	0.0310353
-0.492097	-0.0896702
-0.442062	0.0263579
-0.502062	-0.0940612
-0.452088	0.0302717
-0.51203	-0.103225
-0.462061	0.031083
-0.522106	-0.102461
-0.472091	0.0320376
-0.532086	-0.110718
-0.482075	0.0377173
-0.54207	-0.116016
-0.492112	0.0325149
-0.552054	-0.135108
-0.502081	0.0375741
-0.56203	-0.154581
-0.51211	0.0410106
-0.572026	-0.171716
-0.522026	0.0530382
-0.58204	-0.200162
-0.532117	0.0631089
-0.591994	-0.229038
-0.542047	0.0661158
-0.60205	-0.274809
-0.552046	0.090171
-0.612023	-0.320533
-0.562049	0.113844
-0.622117	-0.365016
-0.57206	0.149545
-0.63201	-0.409881
-0.582013	0.176416
-0.642035	-0.448589
-0.59202	0.216652
-0.652023	-0.477083
-0.601993	0.25808
-0.662053	-0.487154
-0.612023	0.284856
-0.672022	-0.490065
-0.622045	0.309866
-0.682044	-0.47861
-0.632006	0.311202
-0.691997	-0.46873
-0.642051	0.3186
-0.702035	-0.437802
-0.652027	0.316738
-0.712125	-0.407065
-0.661984	0.296024
-0.722117	-0.381626
-0.672037	0.273496
-0.732086	-0.350984
-0.682006	0.242807
-0.742074	-0.325783
-0.692032	0.215268
-0.75213	-0.313517
-0.702176	0.191212
-0.762141	-0.295523
-0.712125	0.165487
-0.772117	-0.279105
-0.722113	0.142529
-0.78209	-0.272996
-0.732109	0.129213
-0.792108	-0.267745
-0.742085	0.113033
-0.802046	-0.259011
-0.75213	0.103917
-0.812125	-0.254334
-0.762087	0.0917938
-0.822106	-0.254191
-0.772071	0.0811503
-0.832059	-0.248034
-0.782086	0.0818662
-0.842093	-0.245886
-0.792047	0.0741819
-0.852153	-0.254906
-0.802019	0.0711273
-0.862095	-0.251947
-0.812057	0.074516
-0.872125	-0.250277
-0.822071	0.0712228
-0.882047	-0.257675
-0.832082	0.066784
-0.892115	-0.256243
-0.842047	0.0683113
-0.90205	-0.25715
-0.852076	0.0681681
-0.912057	-0.258343
-0.862137	0.0638726
-0.922044	-0.256481
-0.87209	0.0627271
-0.932078	-0.252281
-0.88207	0.0632521
-0.942062	-0.255718
-0.892123	0.0636816
-0.952099	-0.256625
-0.902099	0.0635385
-0.962079	-0.263736
-0.912102	0.0636339
-0.972079	-0.25209
-0.922105	0.0679295
-0.982093	-0.250993
-0.932044	0.0691227
-0.992024	-0.262829
-0.9421	0.0684545
-1.00204	-0.254047
-0.952088	0.0630612
-1.0121	-0.258868
-0.962022	0.0641589
-1.02201	-0.258916
-0.972117	0.064493
-1.03205	-0.254429
-0.982055	0.0640157
-1.04207	-0.26197
-0.99202	0.0617725
-1.05203	-0.256959
-1.00205	0.0691704
-1.06202	-0.26808
-1.01206	0.0660203
-1.07204	-0.261398
-1.02204	0.0680727
-1.08207	-0.2687
-1.03201	0.062393
-1.09204	-0.270132
-1.04206	0.0649226
-1.10204	-0.269177
-1.05209	0.0583838
-1.11203	-0.27815
-1.06204	0.0630612
-1.12213	-0.291562
-1.07202	0.0595293