File: VFSWV_data_prep/Example_data/CoPc(OMe)8_VFSWV_txt_data/CoPc(OMe)8_CNT_VFSWV_scans_46_45_C02.txt
Ewe/V	<I>/mA
-0.122114	-0.00657479
-0.0720911	0.0262972
-0.132094	-0.0121287
-0.0820789	0.0276856
-0.142067	-0.0119898
-0.0921239	0.0170291
-0.152058	-0.0153221
-0.102073	0.0217152
-0.162088	-0.0185503
-0.112084	0.0160225
-0.172083	-0.0217091
-0.122064	0.01873
-0.182098	-0.0187239
-0.132041	0.0171333
-0.192074	-0.0218826
-0.142089	0.0203615
-0.202066	-0.0233405
-0.152096	0.0195284
-0.212042	-0.0251108
-0.162073	0.0163002
-0.222037	-0.0263952
-0.172099	0.0195631
-0.232052	-0.02702
-0.182067	0.0165085
-0.242063	-0.0237224
-0.192063	0.0152241
-0.252058	-0.0316366
-0.202085	0.0143911
-0.262011	-0.0299705
-0.212069	0.0150506
-0.272045	-0.0350384
-0.222053	0.0182093
-0.282147	-0.0380236
-0.232025	0.0192854
-0.29212	-0.0356979
-0.242044	0.0186259
-0.302131	-0.0390302
-0.252062	0.0151894
-0.312134	-0.0334069
-0.262076	0.0210557
-0.322156	-0.0398286
-0.27203	0.0235897
-0.332124	-0.0404534
-0.282121	0.0182093
-0.342101	-0.0411823
-0.292078	0.015849
-0.352115	-0.0399327
-0.302134	0.0186953
-0.362069	-0.0415295
-0.312145	0.0168903
-0.372144	-0.0415989
-0.32214	0.0170639
-0.382136	-0.0440287
-0.332105	0.0174457
-0.392116	-0.0471875
-0.342127	0.0180011
-0.402157	-0.0457296
-0.352111	0.0178275
-0.412057	-0.0507975
-0.362099	0.0163349
-0.422106	-0.0580869
-0.372098	0.0132456
-0.432132	-0.0517694
-0.38209	0.0223747
-0.442085	-0.0532967
-0.392105	0.0186606
-0.452081	-0.057358
-0.402081	0.0167167
-0.462175	-0.0486801
-0.412061	0.0225136
-0.47206	-0.0515611
-0.422102	0.0209169
-0.482036	-0.059406
-0.432082	0.0217846
-0.492039	-0.0601349
-0.44207	0.018973
-0.502104	-0.0574968
-0.452062	0.0168903
-0.512049	-0.06614
-0.462091	0.0203615
-0.522064	-0.0621829
-0.472041	0.0228607
-0.532097	-0.0676673
-0.482075	0.0227913
-0.542051	-0.0743667
-0.49207	0.0251864
-0.552054	-0.0713815
-0.502077	0.024145
-0.562007	-0.0818991
-0.512053	0.0279633
-0.572037	-0.0926945
-0.522068	0.0333089
-0.582071	-0.102483
-0.532059	0.0384463
-0.592036	-0.115604
-0.542036	0.0360859
-0.60205	-0.133932
-0.552081	0.0422298
-0.612061	-0.150316
-0.562095	0.0527822
-0.622048	-0.164825
-0.572041	0.0587873
-0.632063	-0.182424
-0.582048	0.0788854
-0.641925	-0.195233
-0.592028	0.0817664
-0.652046	-0.209777
-0.602008	0.0964495
-0.662042	-0.214671
-0.61203	0.114465
-0.672048	-0.214567
-0.621987	0.121199
-0.682032	-0.216511
-0.632021	0.126232
-0.692016	-0.214463
-0.642032	0.127065
-0.702019	-0.206306
-0.652027	0.121546
-0.712103	-0.196934
-0.662019	0.113771
-0.722094	-0.192317
-0.672003	0.110681
-0.732116	-0.185132
-0.682006	0.098428
-0.742058	-0.181244
-0.692005	0.0897501
-0.752092	-0.179578
-0.702149	0.0861748
-0.762061	-0.173503
-0.712084	0.0751018
-0.772083	-0.158924
-0.722129	0.0779481
-0.782082	-0.161042
-0.732109	0.0632998
-0.792062	-0.16486
-0.742158	0.0607311
-0.802023	-0.158438
-0.752115	0.0567046
-0.812076	-0.159619
-0.762061	0.0557674
-0.822071	-0.157952
-0.772121	0.0492763
-0.832086	-0.155696
-0.782135	0.0511854
-0.842115	-0.157779
-0.792073	0.0432712
-0.852088	-0.156633
-0.802092	0.0479573
-0.862114	-0.158022
-0.812091	0.0440695
-0.872121	-0.160868
-0.82209	0.0460481
-0.882116	-0.157779
-0.832101	0.0433059
-0.89207	-0.162291
-0.842123	0.0462217
-0.902084	-0.160799
-0.852118	0.0426117
-0.912068	-0.164582
-0.862091	0.0468812
-0.922075	-0.161875
-0.872052	0.043167
-0.93204	-0.157189
-0.882047	0.0484085
-0.942089	-0.161944
-0.8921	0.0435142
-0.952038	-0.156842
-0.902084	0.0462564
-0.962079	-0.159341
-0.91203	0.0461175
-0.972014	-0.160348
-0.922029	0.0485473
-0.982105	-0.155488
-0.932074	0.0466729
-0.992058	-0.160799
-0.942127	0.0453192
-1.00203	-0.157744
-0.95208	0.0480267
-1.01205	-0.160105
-0.962072	0.0457357
-1.02206	-0.155523
-0.972041	0.0468812
-1.03208	-0.166457
-0.982055	0.0466382
-1.04203	-0.16066
-0.992043	0.0457357
-1.05204	-0.167915
-1.00203	0.0424034
-1.06203	-0.156252
-1.01208	0.038481
-1.07203	-0.166943
-1.02204	0.0427158
-1.08204	-0.169616
-1.032	0.0467076
-1.09202	-0.170275
-1.04202	0.0387587
-1.10202	-0.173538
-1.05211	0.0421604
-1.11203	-0.178467
-1.06205	0.0405984
-1.12212	-0.182077
-1.072	0.0428893