File: VFSWV_data_prep/Example_data/CoPc(OMe)8_VFSWV_txt_data/CoPc(OMe)8_CNT_VFSWV_scans_24_23_C02.txt
Ewe/V	<I>/mA
-0.122068	-0.0466668
-0.0721407	0.140429
-0.132063	-0.139069
-0.0820903	0.130311
-0.142105	-0.148233
-0.0920934	0.122006
-0.152062	-0.149856
-0.102081	0.120956
-0.16208	-0.154915
-0.112073	0.11771
-0.172072	-0.159402
-0.12208	0.114656
-0.182086	-0.162361
-0.132067	0.11962
-0.19199	-0.171716
-0.142059	0.114847
-0.202047	-0.173529
-0.152073	0.117901
-0.212042	-0.186607
-0.162042	0.114751
-0.222049	-0.192048
-0.172053	0.11981
-0.232094	-0.204457
-0.182067	0.122006
-0.242078	-0.204362
-0.192021	0.128974
-0.252047	-0.211426
-0.202031	0.135084
-0.262023	-0.221353
-0.212038	0.132315
-0.272007	-0.231376
-0.222053	0.139856
-0.282121	-0.250659
-0.232075	0.135943
-0.292158	-0.2561
-0.242021	0.147684
-0.302172	-0.260873
-0.252062	0.149307
-0.312122	-0.273568
-0.262027	0.151884
-0.322118	-0.285596
-0.272056	0.153889
-0.332147	-0.288555
-0.282117	0.151407
-0.342131	-0.290082
-0.292139	0.16248
-0.3521	-0.304305
-0.302131	0.158089
-0.362114	-0.312133
-0.312168	0.160571
-0.372102	-0.30841
-0.322121	0.162384
-0.382075	-0.325974
-0.332136	0.169066
-0.392108	-0.337525
-0.342154	0.17403
-0.402085	-0.344588
-0.352157	0.173648
-0.412114	-0.363107
-0.362099	0.175844
-0.422087	-0.375994
-0.372144	0.182908
-0.43214	-0.388594
-0.382143	0.18959
-0.44207	-0.405108
-0.392104	0.195508
-0.452134	-0.425345
-0.402077	0.199422
-0.462141	-0.445773
-0.412099	0.209158
-0.472072	-0.471165
-0.42206	0.218799
-0.482094	-0.497892
-0.43209	0.229777
-0.492066	-0.539607
-0.442097	0.241805
-0.502088	-0.588768
-0.452073	0.268151
-0.512049	-0.648142
-0.462099	0.290201
-0.521995	-0.716107
-0.472091	0.326093
-0.532055	-0.824356
-0.482082	0.366853
-0.542047	-0.952173
-0.492043	0.423937
-0.552077	-1.09154
-0.502107	0.505362
-0.562053	-1.27558
-0.512026	0.611605
-0.572075	-1.4811
-0.522079	0.760328
-0.582086	-1.70619
-0.532071	0.927187
-0.59202	-1.95438
-0.542055	1.11562
-0.602092	-2.20667
-0.552084	1.31026
-0.612064	-2.45199
-0.562072	1.5236
-0.622006	-2.68033
-0.572022	1.72005
-0.632044	-2.88308
-0.582059	1.88567
-0.642035	-3.0571
-0.592062	2.01931
-0.651993	-3.20467
-0.602031	2.1393
-0.662003	-3.29459
-0.612038	2.19992
-0.671991	-3.33182
-0.622048	2.24392
-0.682048	-3.3344
-0.632116	2.25223
-0.692032	-3.28486
-0.642032	2.23142
-0.702027	-3.20372
-0.652016	2.18216
-0.712137	-3.08421
-0.66203	2.11515
-0.722151	-2.92117
-0.672045	2.01778
-0.732112	-2.73674
-0.682025	1.91001
-0.7421	-2.55366
-0.692024	1.7822
-0.7521	-2.37487
-0.702084	1.64197
-0.762103	-2.19827
-0.712148	1.50613
-0.772109	-2.03532
-0.722102	1.3828
-0.78209	-1.89357
-0.732074	1.26291
-0.792066	-1.76938
-0.742108	1.15275
-0.802096	-1.66256
-0.752122	1.05834
-0.812091	-1.57665
-0.762049	0.974629
-0.822109	-1.51212
-0.772113	0.897309
-0.832082	-1.45638
-0.782139	0.837648
-0.842081	-1.41571
-0.792112	0.792306
-0.85213	-1.37868
-0.802038	0.744195
-0.862068	-1.3509
-0.812068	0.717467
-0.872071	-1.33467
-0.82209	0.685203
-0.882067	-1.32226
-0.832139	0.658952
-0.89207	-1.33018
-0.842066	0.653225
-0.902103	-1.31453
-0.852038	0.634992
-0.91203	-1.31825
-0.86208	0.636711
-0.922056	-1.32073
-0.872098	0.632415
-0.932097	-1.32885
-0.882093	0.626783
-0.942138	-1.33257
-0.892112	0.621342
-0.952027	-1.33572
-0.902084	0.618287
-0.962068	-1.34278
-0.91208	0.61466
-0.97204	-1.34192
-0.922067	0.622583
-0.982043	-1.3404
-0.932009	0.621533
-0.992085	-1.3424
-0.942054	0.625256
-1.00204	-1.34145
-0.95208	0.62621
-1.01201	-1.34087
-0.962041	0.630697
-1.02206	-1.34441
-0.972056	0.632797
-1.03207	-1.34049
-0.98207	0.638333
-1.04204	-1.34947
-0.991997	0.63442
-1.0521	-1.34794
-1.00203	0.633751
-1.062	-1.35204
-1.01209	0.634802
-1.07203	-1.35682
-1.02202	0.640338
-1.08207	-1.35586
-1.032	0.640529
-1.09206	-1.36102
-1.04207	0.632701
-1.10202	-1.38001
-1.05207	0.639956
-1.11204	-1.39758
-1.06205	0.638906
-1.12211	-1.40894
-1.07205	0.640433