File: VFSWV_data_prep/Example_data/CoPc(OMe)8_VFSWV_txt_data/CoPc(OMe)8_CNT_VFSWV_scans_30_29_C02.txt
Ewe/V	<I>/mA
-0.122064	-0.0245207
-0.0720949	0.0585651
-0.132052	-0.0608708
-0.0821285	0.051234
-0.142101	-0.071562
-0.0921124	0.0435975
-0.152073	-0.0717911
-0.102115	0.0413065
-0.162103	-0.0700347
-0.11213	0.0386337
-0.172053	-0.0678201
-0.122076	0.0461939
-0.18206	-0.0729366
-0.132079	0.0358845
-0.19204	-0.0770603
-0.14212	0.0361136
-0.20202	-0.080344
-0.152108	0.0395501
-0.212103	-0.0912643
-0.162034	0.0440557
-0.22206	-0.0929444
-0.172064	0.0422229
-0.232044	-0.0919516
-0.182083	0.046423
-0.242078	-0.0971445
-0.192051	0.0387864
-0.252069	-0.0990536
-0.202066	0.0458121
-0.26205	-0.104705
-0.212099	0.0411538
-0.27206	-0.115549
-0.222037	0.0425283
-0.282178	-0.111578
-0.232079	0.0397792
-0.292169	-0.121047
-0.242082	0.0500122
-0.302131	-0.128302
-0.252027	0.048714
-0.312084	-0.128913
-0.262038	0.0443611
-0.322133	-0.128913
-0.272083	0.0506231
-0.332132	-0.138076
-0.282159	0.0476448
-0.342143	-0.142277
-0.292139	0.0513868
-0.352138	-0.150371
-0.302096	0.0433684
-0.362134	-0.153808
-0.312141	0.0479503
-0.372102	-0.161368
-0.322156	0.0489431
-0.382078	-0.163964
-0.332101	0.0546705
-0.392104	-0.156404
-0.342135	0.0593288
-0.402119	-0.163583
-0.352127	0.0567324
-0.412107	-0.180689
-0.36208	0.0522268
-0.422095	-0.184049
-0.372117	0.0525322
-0.432086	-0.180001
-0.382151	0.051234
-0.442135	-0.195656
-0.392139	0.0506995
-0.452138	-0.197107
-0.402153	0.0662017
-0.462107	-0.19894
-0.412153	0.0603979
-0.472091	-0.207035
-0.422083	0.0723873
-0.482098	-0.219559
-0.432086	0.0713946
-0.492081	-0.239948
-0.442101	0.0776566
-0.5021	-0.254763
-0.45213	0.0789548
-0.512042	-0.284317
-0.462114	0.0809403
-0.522113	-0.303637
-0.47206	0.098428
-0.532101	-0.350449
-0.482021	0.113472
-0.542074	-0.415284
-0.492116	0.132487
-0.552054	-0.472176
-0.502111	0.152342
-0.562072	-0.567023
-0.512057	0.185867
-0.572068	-0.678975
-0.522087	0.239323
-0.582029	-0.806505
-0.532063	0.319507
-0.592028	-0.952975
-0.542066	0.406029
-0.602104	-1.11082
-0.552035	0.524701
-0.612064	-1.26348
-0.56208	0.662465
-0.622068	-1.41972
-0.572064	0.798167
-0.632051	-1.56535
-0.582029	0.939749
-0.642054	-1.68517
-0.592032	1.05888
-0.652027	-1.78261
-0.602069	1.15602
-0.662034	-1.83737
-0.612045	1.23597
-0.672033	-1.86295
-0.622014	1.27629
-0.682036	-1.84737
-0.632017	1.29661
-0.692024	-1.80292
-0.642058	1.27545
-0.702023	-1.71205
-0.652016	1.24277
-0.712156	-1.61827
-0.662022	1.18145
-0.722128	-1.49509
-0.672029	1.10646
-0.73212	-1.38016
-0.682048	1.02009
-0.742131	-1.25576
-0.692054	0.923483
-0.752084	-1.14526
-0.702153	0.826193
-0.762145	-1.04591
-0.712118	0.731881
-0.772121	-0.954578
-0.722148	0.65017
-0.782166	-0.879129
-0.732158	0.576095
-0.792104	-0.829491
-0.742127	0.501944
-0.802096	-0.787796
-0.752073	0.45307
-0.812122	-0.746176
-0.762061	0.408855
-0.822098	-0.718838
-0.772067	0.372734
-0.832109	-0.696004
-0.782112	0.336918
-0.842089	-0.682106
-0.7921	0.319278
-0.852103	-0.67004
-0.802096	0.298277
-0.862087	-0.668589
-0.812099	0.282469
-0.872079	-0.656676
-0.822098	0.262767
-0.882116	-0.667749
-0.832047	0.261621
-0.892058	-0.662861
-0.842051	0.249403
-0.902084	-0.656676
-0.852141	0.240926
-0.912087	-0.667596
-0.862072	0.240545
-0.922056	-0.672484
-0.872064	0.236192
-0.932032	-0.672102
-0.882097	0.24253
-0.94205	-0.682411
-0.892066	0.233977
-0.952084	-0.678364
-0.90208	0.237032
-0.962026	-0.674851
-0.912045	0.231839
-0.972037	-0.676989
-0.922067	0.23161
-0.982051	-0.677524
-0.932105	0.241232
-0.992081	-0.67508
-0.942066	0.245203
-1.00203	-0.677218
-0.952107	0.242988
-1.01209	-0.676684
-0.962087	0.24505
-1.02202	-0.669658
-0.972056	0.246654
-1.03205	-0.667291
-0.982066	0.244745
-1.042	-0.673629
-0.992008	0.239857
-1.05205	-0.670956
-1.00207	0.248487
-1.06204	-0.675844
-1.01204	0.243294
-1.07204	-0.682258
-1.02204	0.238941
-1.08207	-0.680731
-1.03202	0.246196
-1.09204	-0.689131
-1.04204	0.243065
-1.10201	-0.699135
-1.05198	0.242301
-1.11203	-0.706466
-1.06198	0.24925
-1.12215	-0.717234
-1.07201	0.238024