File: VFSWV_data_prep/Example_data/CoPc(OMe)8_VFSWV_txt_data/CoPc(OMe)8_CNT_VFSWV_scans_53_52_C02.txt
Ewe/V	<I>/mA
-0.122083	-0.0103931
-0.072114	0.00854562
-0.132022	-0.0078921
-0.0821094	0.00688466
-0.142055	-0.0110613
-0.0920857	0.00535735
-0.152073	-0.0100876
-0.102024	0.0103593
-0.162065	-0.0120731
-0.112065	0.00831652
-0.172049	-0.0136577
-0.122045	0.00675102
-0.18204	-0.0124359
-0.132083	0.00465097
-0.192009	-0.0153568
-0.142093	0.00505189
-0.202031	-0.0156814
-0.152089	0.00257
-0.212012	-0.0183733
-0.162038	0.00354366
-0.222041	-0.0170178
-0.171992	0.00604464
-0.232052	-0.0176287
-0.182056	0.00732376
-0.242032	-0.0163305
-0.192028	0.00583463
-0.252035	-0.0188506
-0.202031	0.00316184
-0.261962	-0.0189651
-0.212038	0.00690375
-0.272011	-0.0198624
-0.222064	0.00537644
-0.282113	-0.0186788
-0.232025	0.00709467
-0.292139	-0.0210079
-0.242036	0.00465097
-0.302111	-0.020187
-0.251993	0.00824015
-0.312099	-0.0213516
-0.261943	0.00837379
-0.322087	-0.0209315
-0.271995	0.0094811
-0.332067	-0.0205879
-0.282083	0.00512825
-0.342093	-0.0213706
-0.292131	0.00732377
-0.352108	-0.0209124
-0.302138	0.00325729
-0.362099	-0.0205115
-0.312137	0.00371549
-0.372068	-0.0208743
-0.322106	0.00556735
-0.382056	-0.0250553
-0.332052	0.00772468
-0.392074	-0.0207597
-0.342108	0.00743831
-0.40205	-0.0246735
-0.352119	0.00629283
-0.412099	-0.0267353
-0.362072	0.00583464
-0.42203	-0.0253798
-0.372098	0.00474642
-0.432021	-0.0303627
-0.382071	0.010092
-0.442066	-0.0289308
-0.39207	0.00684648
-0.452054	-0.0239671
-0.402062	0.00888926
-0.462088	-0.0263535
-0.412111	0.00176816
-0.472094	-0.0298281
-0.422087	0.00652193
-0.482059	-0.0256471
-0.432078	0.00342912
-0.492047	-0.0326537
-0.442078	0.0105884
-0.502039	-0.0271172
-0.452092	0.00698012
-0.512042	-0.0317564
-0.462084	0.00866016
-0.52206	-0.0307063
-0.472026	0.0113711
-0.532059	-0.0306682
-0.482117	0.00900381
-0.542036	-0.0305154
-0.491997	0.0124784
-0.552035	-0.0367392
-0.502046	0.013223
-0.562007	-0.0346583
-0.512057	0.0129176
-0.572018	-0.0407675
-0.522007	0.0138721
-0.582006	-0.0416457
-0.531994	0.0146931
-0.592032	-0.0430776
-0.541994	0.0185304
-0.602027	-0.0455786
-0.552039	0.0164876
-0.612049	-0.0484996
-0.561984	0.0210505
-0.62198	-0.0548952
-0.572029	0.0209932
-0.63201	-0.0574152
-0.582036	0.0225778
-0.642028	-0.0595344
-0.592028	0.0249833
-0.652035	-0.0627227
-0.602019	0.0277898
-0.662026	-0.0622454
-0.612019	0.0272552
-0.672037	-0.0624554
-0.62198	0.0294125
-0.681929	-0.0675719
-0.63199	0.0289925
-0.692009	-0.0728793
-0.641936	0.0298516
-0.702023	-0.0752466
-0.652016	0.0296225
-0.712072	-0.0707792
-0.662038	0.0283243
-0.722033	-0.0716765
-0.672037	0.031398
-0.732044	-0.067591
-0.682021	0.0278852
-0.742096	-0.069901
-0.692016	0.0273698
-0.752084	-0.0700729
-0.702065	0.0225969
-0.762095	-0.070111
-0.712129	0.0303098
-0.772056	-0.0714856
-0.722075	0.020745
-0.782021	-0.0718293
-0.732082	0.0187404
-0.792062	-0.0659109
-0.742062	0.0283052
-0.802065	-0.0693092
-0.752103	0.0190268
-0.81203	-0.0709702
-0.762061	0.0212223
-0.822067	-0.0692137
-0.772109	0.022196
-0.832047	-0.0641927
-0.782036	0.0207832
-0.842115	-0.0710274
-0.792024	0.0225587
-0.852073	-0.0689656
-0.802069	0.017404
-0.862083	-0.0727838
-0.812068	0.0175949
-0.872071	-0.0714093
-0.822117	0.0115812
-0.881998	-0.0729939
-0.832059	0.0221005
-0.892093	-0.0725166
-0.842005	0.0188932
-0.902038	-0.0722302
-0.85205	0.019065
-0.912057	-0.073032
-0.862133	0.0195423
-0.922044	-0.0738148
-0.872083	0.0196759
-0.932067	-0.0710656
-0.882013	0.0179959
-0.942001	-0.0730129
-0.892043	0.0179959
-0.952011	-0.0730511
-0.902	0.0191032
-0.962022	-0.0738339
-0.912076	0.0223678
-0.972052	-0.0741966
-0.922117	0.0191414
-0.982017	-0.0755139
-0.932032	0.0189695
-0.992028	-0.0766403
-0.942073	0.0135285
-1.00203	-0.0749984
-0.952053	0.0198668
-1.01203	-0.0729748
-0.962057	0.0189504
-1.02203	-0.0727838
-0.972067	0.0185686
-1.03202	-0.0782822
-0.982078	0.0134712
-1.04202	-0.0757812
-0.992054	0.0145021
-1.05205	-0.0804204
-1.00203	0.0163922
-1.06199	-0.0808213
-1.01203	0.0140439
-1.07206	-0.079084
-1.02206	0.0158004
-1.08206	-0.086606
-1.03202	0.0106839
-1.09202	-0.0832268
-1.04201	0.0151512
-1.102	-0.0839141
-1.05201	0.0153231
-1.11198	-0.0867588
-1.06196	0.0151512
-1.12206	-0.0912834
-1.07197	0.0197905