File: VFSWV_data_prep/Example_data/CoPc(OMe)8_VFSWV_txt_data/CoPc(OMe)8_CNT_VFSWV_scans_26_25_C02.txt
Ewe/V	<I>/mA
-0.122122	-0.0355937
-0.0720873	0.10511
-0.132109	-0.0917225
-0.0821285	0.0913642
-0.142101	-0.0973545
-0.0921659	0.0907915
-0.152104	-0.0960181
-0.102096	0.0853504
-0.162084	-0.104514
-0.112073	0.0845867
-0.172053	-0.103941
-0.122114	0.0801957
-0.182113	-0.111387
-0.132075	0.0800048
-0.192036	-0.118832
-0.142112	0.0809594
-0.202073	-0.119596
-0.152073	0.0784775
-0.212065	-0.125037
-0.162096	0.0713182
-0.222064	-0.130287
-0.17206	0.0757092
-0.232021	-0.146897
-0.182098	0.0846822
-0.242101	-0.142506
-0.192055	0.0836322
-0.252066	-0.16112
-0.202092	0.0830594
-0.262061	-0.160452
-0.212065	0.0870686
-0.272076	-0.161502
-0.222076	0.0900278
-0.282151	-0.176488
-0.232098	0.0889778
-0.292215	-0.18317
-0.242044	0.0801957
-0.302192	-0.19033
-0.252035	0.0983326
-0.312099	-0.18823
-0.262076	0.0936552
-0.322152	-0.197012
-0.272095	0.100814
-0.332193	-0.206271
-0.28214	0.102151
-0.342158	-0.204266
-0.292135	0.101864
-0.35215	-0.223071
-0.302173	0.0970916
-0.362118	-0.227844
-0.31216	0.0977598
-0.372129	-0.228131
-0.322121	0.103105
-0.382128	-0.242067
-0.332155	0.106828
-0.392089	-0.243595
-0.342093	0.103392
-0.402077	-0.248749
-0.352115	0.102437
-0.412099	-0.257436
-0.36216	0.106542
-0.422121	-0.263832
-0.372136	0.119333
-0.432132	-0.2729
-0.382166	0.11981
-0.442097	-0.290082
-0.39212	0.11981
-0.4521	-0.303733
-0.402054	0.121624
-0.462107	-0.312992
-0.412133	0.128402
-0.472106	-0.33972
-0.422114	0.135561
-0.482086	-0.358239
-0.432078	0.13957
-0.492104	-0.381817
-0.442093	0.151789
-0.502138	-0.414177
-0.45213	0.166107
-0.512114	-0.451978
-0.462103	0.187299
-0.522056	-0.517938
-0.472071	0.201713
-0.532059	-0.582277
-0.482063	0.23455
-0.542093	-0.675729
-0.492116	0.273401
-0.552073	-0.791614
-0.502062	0.324661
-0.56203	-0.937091
-0.512061	0.395109
-0.572048	-1.10815
-0.522071	0.495339
-0.582052	-1.29849
-0.532002	0.622583
-0.592047	-1.4979
-0.542028	0.776651
-0.602065	-1.71526
-0.552042	0.953151
-0.612042	-1.93605
-0.562065	1.14807
-0.622037	-2.1388
-0.572068	1.31388
-0.632029	-2.32781
-0.582055	1.48322
-0.642009	-2.47681
-0.592055	1.62307
-0.652019	-2.60291
-0.602065	1.73199
-0.662011	-2.67794
-0.612072	1.80701
-0.672056	-2.7061
-0.621995	1.85799
-0.682051	-2.70935
-0.632074	1.86228
-0.692016	-2.6556
-0.642058	1.84023
-0.702019	-2.55576
-0.652016	1.80176
-0.712145	-2.4393
-0.662034	1.72817
-0.722102	-2.28876
-0.672026	1.63844
-0.732154	-2.13183
-0.682029	1.53563
-0.742146	-1.96259
-0.692001	1.41831
-0.752142	-1.8174
-0.702149	1.29804
-0.762106	-1.66591
-0.712141	1.16946
-0.772151	-1.5253
-0.722132	1.06073
-0.78209	-1.41495
-0.732132	0.962219
-0.792093	-1.32274
-0.742073	0.86724
-0.802069	-1.23988
-0.752107	0.779896
-0.812095	-1.17917
-0.762106	0.719567
-0.822117	-1.1345
-0.772048	0.654275
-0.832055	-1.09039
-0.782059	0.605878
-0.842127	-1.05737
-0.792081	0.553568
-0.852084	-1.04066
-0.802096	0.530085
-0.862072	-1.02138
-0.812095	0.497725
-0.87214	-1.02033
-0.822102	0.47997
-0.882101	-0.998088
-0.83207	0.469661
-0.892104	-1.00744
-0.842119	0.454578
-0.902134	-0.998565
-0.852118	0.453242
-0.912137	-1.01164
-0.86206	0.440164
-0.922113	-1.00735
-0.872151	0.43291
-0.932086	-1.00859
-0.882078	0.428805
-0.942134	-1.01594
-0.892123	0.434055
-0.952069	-1.01976
-0.902118	0.436728
-0.962087	-1.01766
-0.912091	0.426228
-0.972132	-1.01995
-0.922082	0.438542
-0.982089	-1.023
-0.932036	0.437301
-0.992047	-1.01393
-0.942062	0.440642
-1.00212	-1.01527
-0.95205	0.44551
-1.01205	-1.01365
-0.962053	0.447037
-1.02204	-1.01928
-0.97204	0.447228
-1.03205	-1.02539
-0.982051	0.43501
-1.04212	-1.02911
-0.992031	0.441215
-1.05202	-1.02443
-1.00208	0.444746
-1.06204	-1.03026
-1.0121	0.451333
-1.07205	-1.0272
-1.02204	0.437969
-1.08202	-1.04171
-1.03204	0.441119
-1.09204	-1.04104
-1.04206	0.438542
-1.10206	-1.04639
-1.05212	0.448469
-1.11203	-1.06357
-1.06204	0.441883
-1.12207	-1.0861
-1.07203	0.441883