File: VFSWV_data_prep/Example_data/CoPc(OMe)8_VFSWV_txt_data/CoPc(OMe)8_CNT_VFSWV_scans_67_66_C02.txt
Ewe/V	<I>/mA
-0.122129	-0.00182446
-0.0720988	0.0138411
-0.132052	0.00637158
-0.0820979	0.0135189
-0.142089	0.00631192
-0.0920552	0.0184827
-0.152058	0.0105538
-0.102066	0.013674
-0.162061	0.00643721
-0.112077	0.0124749
-0.172064	0.00622243
-0.122041	0.0126598
-0.18209	0.00779151
-0.132064	0.014921
-0.19207	0.00678324
-0.142055	0.0128567
-0.202012	0.00856113
-0.151993	0.0133399
-0.212034	0.00557809
-0.162	0.0124092
-0.222022	0.00544684
-0.172018	0.0131252
-0.232033	0.00289933
-0.182037	0.011216
-0.242005	0.00367492
-0.191994	0.00930092
-0.251993	0.000321987
-0.202031	0.00865062
-0.262004	-0.00027462
-0.211992	0.0111862
-0.272049	5.78508e-06
-0.222022	0.0109476
-0.282082	-0.000686279
-0.231999	0.0129402
-0.292108	0.00473688
-0.242005	0.0122124
-0.302123	0.00436698
-0.252001	0.0107626
-0.312118	0.00307831
-0.262034	0.0114666
-0.322076	0.00692643
-0.272041	0.0150104
-0.332109	0.00504711
-0.282132	0.013674
-0.342085	0.00711734
-0.292128	0.0118067
-0.3521	0.00292916
-0.302169	0.0137635
-0.362107	0.00439085
-0.312107	0.0115143
-0.372098	0.00178964
-0.322072	0.0114785
-0.382056	0.0048204
-0.332117	0.0120692
-0.39212	0.00406271
-0.342116	0.0102555
-0.402085	0.00278597
-0.352115	0.0104166
-0.412038	0.000632222
-0.362134	0.00970661
-0.422022	-0.00136044
-0.372129	0.00908614
-0.432063	0.00170611
-0.382109	0.014032
-0.442093	-0.00142011
-0.392089	0.0122899
-0.452107	-0.000340247
-0.40205	0.0116754
-0.462103	0.00178367
-0.412042	0.0120036
-0.472041	7.14119e-05
-0.422087	0.0132266
-0.482048	0.00422976
-0.432044	0.0140499
-0.49207	0.00392549
-0.44207	0.0126539
-0.502054	0.00442068
-0.452046	0.0118604
-0.512053	0.00174191
-0.462076	0.0129104
-0.521991	-0.00116953
-0.472072	0.013149
-0.532101	-0.000203027
-0.48204	0.0141752
-0.542058	-0.00238661
-0.492066	0.00860289
-0.552046	-0.00543527
-0.502058	0.00491586
-0.562045	-0.00503554
-0.512065	0.00785713
-0.571995	-0.00399148
-0.522018	0.00891313
-0.582021	-0.00521453
-0.532067	0.011049
-0.592058	-0.00759499
-0.542055	0.0109237
-0.602008	-0.00665831
-0.552042	0.0148374
-0.612045	-0.00644354
-0.561977	0.0122124
-0.621999	-0.00705207
-0.572018	0.0126777
-0.632048	-0.0130599
-0.581983	0.0107447
-0.642009	-0.0126661
-0.592085	0.016317
-0.652027	-0.0129167
-0.602046	0.0122362
-0.662022	-0.0176299
-0.612042	0.00779747
-0.672045	-0.015679
-0.622041	0.00921143
-0.682032	-0.0169319
-0.632051	0.00895489
-0.691993	-0.0163054
-0.642001	0.0095515
-0.702	-0.0180654
-0.652035	0.00989156
-0.712061	-0.0155716
-0.661984	0.00797049
-0.722056	-0.0182325
-0.672048	0.00606731
-0.732139	-0.0193422
-0.682025	0.00600765
-0.742127	-0.0191572
-0.692051	0.00722473
-0.752058	-0.0181967
-0.702153	0.0091816
-0.762026	-0.0197121
-0.712041	0.00506501
-0.772117	-0.0186799
-0.722109	0.00532752
-0.782112	-0.0199507
-0.73212	0.00659829
-0.792123	-0.018495
-0.742066	0.010697
-0.802077	-0.0182027
-0.7521	0.00910404
-0.812064	-0.0151719
-0.762099	0.00768412
-0.82209	-0.0141338
-0.772079	0.0107387
-0.832074	-0.0168901
-0.782063	0.00942024
-0.842077	-0.0163293
-0.79207	0.0109834
-0.852118	-0.0161145
-0.802015	0.00911597
-0.862068	-0.0149929
-0.812064	0.00968872
-0.872117	-0.0185547
-0.82206	0.0116993
-0.882055	-0.0157387
-0.832112	0.0098856
-0.892047	-0.0158043
-0.842085	0.0111086
-0.902065	-0.0146886
-0.852088	0.00962309
-0.912026	-0.0171586
-0.862079	0.0151536
-0.922113	-0.00883593
-0.872098	0.015434
-0.932063	-0.017433
-0.882059	0.0100765
-0.942047	-0.0175225
-0.892047	0.0102734
-0.952076	-0.0178865
-0.902088	0.0055423
-0.96203	-0.0177492
-0.912041	0.00511274
-0.972048	-0.0202252
-0.922113	0.00588236
-0.98207	-0.0188589
-0.932066	0.00535735
-0.992039	-0.0190797
-0.94202	0.00703978
-1.00208	-0.0192467
-0.95205	0.00551843
-1.01204	-0.0199746
-0.962068	0.0107865
-1.02198	-0.0202311
-0.97201	0.00665199
-1.03205	-0.0180714
-0.98204	0.00962309
-1.042	-0.0212871
-0.992058	0.00627016
-1.05204	-0.0215974
-1.00202	0.00860886
-1.06201	-0.0182623
-1.01205	0.00746337
-1.07202	-0.023059
-1.02204	0.00909211
-1.08206	-0.0217584
-1.032	0.00742161
-1.092	-0.0216928
-1.04204	0.00783327
-1.10205	-0.0238704
-1.05202	0.00599572
-1.11201	-0.020249
-1.06204	0.00477267
-1.12211	-0.0263284
-1.07202	0.00727246