File: VFSWV_data_prep/Example_data/CoPc(OMe)8_VFSWV_txt_data/CoPc(OMe)8_CNT_VFSWV_scans_39_38_C02.txt
Ewe/V	<I>/mA
-0.122057	-0.0081021
-0.0720987	0.0353786
-0.132067	-0.0183637
-0.0820864	0.0347104
-0.142074	-0.021657
-0.0920781	0.0324194
-0.152039	-0.0256185
-0.102051	0.0237328
-0.162034	-0.0253321
-0.112073	0.0329922
-0.172072	-0.026048
-0.122102	0.0249261
-0.182079	-0.0270026
-0.132064	0.026167
-0.192032	-0.0338755
-0.142055	0.0258329
-0.202024	-0.0314414
-0.152051	0.0249738
-0.212015	-0.0352597
-0.162069	0.0280284
-0.222087	-0.0361665
-0.172053	0.0290307
-0.232025	-0.0401757
-0.182071	0.0266443
-0.242055	-0.0446144
-0.192067	0.0273125
-0.252008	-0.0451395
-0.202043	0.0248783
-0.262019	-0.0504851
-0.212027	0.0254988
-0.272011	-0.0536351
-0.222049	0.0253079
-0.282079	-0.0534442
-0.232075	0.0283148
-0.292147	-0.0571193
-0.242044	0.0226828
-0.30215	-0.0567852
-0.252043	0.0185782
-0.312084	-0.0581694
-0.262046	0.0250692
-0.322091	-0.0620831
-0.272053	0.0287443
-0.33209	-0.0657105
-0.282163	0.0211078
-0.342105	-0.0626081
-0.292047	0.0320853
-0.352066	-0.0664264
-0.302153	0.0221101
-0.362099	-0.0649468
-0.312122	0.0216805
-0.372076	-0.0727266
-0.322114	0.0225874
-0.382067	-0.0676673
-0.332109	0.0286012
-0.392085	-0.0754471
-0.342105	0.021776
-0.402062	-0.0756857
-0.352108	0.031799
-0.412076	-0.0782153
-0.362156	0.0268352
-0.422037	-0.0757335
-0.372087	0.0280761
-0.432117	-0.0812222
-0.382082	0.0296512
-0.442108	-0.0820814
-0.392085	0.026692
-0.452065	-0.0893838
-0.4021	0.0181963
-0.46208	-0.0888588
-0.412141	0.0309876
-0.472049	-0.0911975
-0.422114	0.0338036
-0.482067	-0.087427
-0.432078	0.0301762
-0.492009	-0.10165
-0.442043	0.0250692
-0.502081	-0.102652
-0.452065	0.0352832
-0.512046	-0.100982
-0.462118	0.0375264
-0.522056	-0.110671
-0.472091	0.0355218
-0.532055	-0.120216
-0.482067	0.038481
-0.542043	-0.129905
-0.492081	0.0395787
-0.552092	-0.147517
-0.502073	0.0427288
-0.562053	-0.170379
-0.512061	0.0494585
-0.572029	-0.196344
-0.521999	0.057286
-0.582032	-0.232474
-0.532029	0.062393
-0.592009	-0.274666
-0.542058	0.0870209
-0.602081	-0.325449
-0.552096	0.101721
-0.612045	-0.378476
-0.562007	0.135561
-0.622052	-0.428161
-0.572033	0.17446
-0.632036	-0.481665
-0.582017	0.220852
-0.641971	-0.517652
-0.592032	0.264285
-0.652031	-0.554737
-0.60205	0.304854
-0.66203	-0.577599
-0.612003	0.341032
-0.672018	-0.577361
-0.622029	0.368858
-0.681994	-0.570679
-0.632059	0.379072
-0.691993	-0.543139
-0.642016	0.372676
-0.701977	-0.514359
-0.651966	0.36671
-0.712099	-0.47966
-0.662007	0.346473
-0.72209	-0.438805
-0.672056	0.319602
-0.732139	-0.415704
-0.682006	0.293208
-0.742146	-0.370075
-0.692005	0.262089
-0.752096	-0.343825
-0.702069	0.228059
-0.762034	-0.326547
-0.712118	0.193742
-0.772079	-0.313756
-0.722071	0.171882
-0.782044	-0.29896
-0.73209	0.150214
-0.79207	-0.291848
-0.74207	0.137422
-0.802088	-0.282016
-0.752107	0.12172
-0.812038	-0.273711
-0.762038	0.106685
-0.822121	-0.274427
-0.772067	0.104155
-0.832021	-0.267364
-0.782109	0.0923188
-0.842028	-0.270418
-0.792138	0.0839663
-0.852122	-0.275668
-0.802057	0.0861141
-0.86203	-0.27648
-0.812057	0.0838708
-0.872094	-0.279391
-0.82209	0.0781911
-0.882047	-0.274905
-0.832166	0.0774275
-0.892092	-0.276002
-0.842009	0.0761865
-0.902092	-0.281348
-0.852065	0.0757092
-0.912076	-0.283209
-0.862102	0.0717955
-0.922021	-0.282875
-0.872056	0.0769979
-0.932028	-0.281062
-0.881998	0.0691227
-0.942024	-0.285119
-0.892073	0.0763774
-0.952027	-0.28488
-0.902065	0.0697432
-0.962026	-0.276718
-0.912072	0.0725592
-0.972006	-0.283019
-0.922079	0.0770934
-0.982032	-0.282016
-0.932055	0.0747069
-0.992069	-0.283782
-0.942104	0.0719864
-1.00204	-0.282303
-0.952076	0.0695045
-1.01204	-0.28173
-0.96206	0.0730842
-1.02203	-0.283209
-0.97204	0.0760433
-1.03203	-0.288794
-0.982009	0.0699818
-1.042	-0.290273
-0.992047	0.07065
-1.05204	-0.284498
-1.00203	0.0664976
-1.062	-0.287982
-1.01204	0.0693136
-1.07205	-0.28908
-1.02201	0.0717955
-1.08205	-0.29433
-1.03206	0.0746115
-1.092	-0.295094
-1.04203	0.0717
-1.102	-0.304496
-1.05204	0.0717955
-1.11201	-0.310367
-1.06199	0.0655908
-1.12209	-0.318385
-1.07201	0.0624884