File: VFSWV_data_prep/Example_data/CoPc(OMe)8_VFSWV_txt_data/CoPc(OMe)8_CNT_VFSWV_scans_68_67_C02.txt
Ewe/V	<I>/mA
-0.122061	-0.00251175
-0.072114	0.0153904
-0.132056	0.00720118
-0.0820674	0.00796483
-0.14207	0.000142376
-0.0920857	0.0063923
-0.152024	0.0017551
-0.102062	0.00915051
-0.162012	0.00166969
-0.112038	0.00639733
-0.172011	0.00396066
-0.122064	0.00540257
-0.182044	0.00289556
-0.132033	0.00577937
-0.191975	-0.000455486
-0.142013	0.0057643
-0.202039	0.000931154
-0.152062	0.00674399
-0.212031	0.000986418
-0.162065	0.00807536
-0.221965	0.00220224
-0.172015	0.00655307
-0.232041	-0.0029223
-0.18206	0.00995436
-0.242032	0.00100651
-0.192032	0.00944191
-0.252001	-0.00275651
-0.202024	0.00592004
-0.261988	-0.00379146
-0.212019	0.00339797
-0.272026	-0.00531375
-0.222034	0.00332763
-0.282086	-0.0034247
-0.232033	0.00454345
-0.292097	-0.00408788
-0.242021	0.00508605
-0.302081	-0.00477115
-0.252001	0.00444297
-0.312107	-0.00349002
-0.262023	0.00326232
-0.322068	-0.00167131
-0.272018	0.00537242
-0.332079	-0.00303283
-0.282067	0.00414153
-0.342051	-0.0036106
-0.292101	0.00250368
-0.352096	-0.00494197
-0.302111	0.0018606
-0.362107	-0.00687623
-0.312122	0.00157926
-0.372045	-0.00470082
-0.322114	0.000745263
-0.382075	-0.0019828
-0.332021	0.00201635
-0.392162	-0.00466062
-0.342051	0.00604062
-0.402058	-0.00562022
-0.352088	-0.00059616
-0.41203	-0.00581616
-0.36208	0.00398578
-0.422075	-0.0101921
-0.372102	0.00049406
-0.432021	-0.00871001
-0.382082	9.2136e-05
-0.44202	-0.00872006
-0.392047	0.00492528
-0.452039	-0.00555993
-0.402096	0.00353362
-0.462076	-0.00581113
-0.412084	0.00233789
-0.47211	-0.00670541
-0.422037	-0.000726785
-0.482063	-0.00609248
-0.432055	-0.00152561
-0.492039	-0.00889088
-0.442055	5.69676e-05
-0.502058	-0.00972487
-0.45205	3.18475e-05
-0.512015	-0.00332422
-0.462088	0.00471427
-0.522018	-0.0108201
-0.472037	0.00451331
-0.532055	-0.00619799
-0.482017	0.00312667
-0.542032	-0.00967463
-0.492043	-0.000143995
-0.552042	-0.00973492
-0.502054	0.00313672
-0.561981	-0.0125936
-0.512053	0.00141849
-0.572064	-0.0130458
-0.522052	-0.000746882
-0.582052	-0.0127946
-0.532048	0.0016295
-0.592051	-0.0140405
-0.542043	0.00269962
-0.602039	-0.0112622
-0.55205	0.000433772
-0.612019	-0.0126539
-0.561977	0.00356878
-0.622026	-0.0125836
-0.57206	0.000946226
-0.632055	-0.011413
-0.58201	0.00714089
-0.64202	-0.00958922
-0.592005	0.00711577
-0.652004	-0.0143169
-0.602023	0.00517146
-0.66203	-0.0119103
-0.612011	0.000448844
-0.672033	-0.0175976
-0.622006	0.00233287
-0.682029	-0.0167535
-0.632021	0.00284532
-0.691986	-0.0177583
-0.64202	0.000981394
-0.701981	-0.0154071
-0.652027	0.00471427
-0.712087	-0.0211848
-0.661988	0.00350347
-0.722098	-0.0179643
-0.672041	0.00342309
-0.732101	-0.0207577
-0.681998	0.00097637
-0.742073	-0.0183361
-0.691944	0.00468413
-0.752065	-0.0172559
-0.702069	0.00489011
-0.762083	-0.0152915
-0.71208	0.00314676
-0.772136	-0.0193861
-0.72209	0.00262426
-0.782059	-0.0186928
-0.732109	0.00644757
-0.792089	-0.0191952
-0.742081	0.00131801
-0.802031	-0.0154473
-0.75208	0.00331758
-0.811996	-0.018105
-0.762072	0.000936178
-0.822106	-0.0223453
-0.772071	-0.000892579
-0.832067	-0.0222298
-0.782124	0.00252378
-0.842028	-0.0176026
-0.792043	0.000755312
-0.85208	-0.0213355
-0.802061	6.19916e-05
-0.862038	-0.0198634
-0.812041	0.00249364
-0.872079	-0.0194364
-0.82206	-0.000294717
-0.882074	-0.0198684
-0.832135	0.00169983
-0.892077	-0.0185471
-0.842131	-0.00111866
-0.902076	-0.0216218
-0.852046	-0.000505727
-0.912041	-0.0214309
-0.862072	0.000880913
-0.922067	-0.0217625
-0.872102	0.00113212
-0.932082	-0.0196625
-0.882067	-0.00149044
-0.942085	-0.0219384
-0.8921	-9.37542e-05
-0.95205	-0.0260229
-0.902088	-0.00323881
-0.962049	-0.0257064
-0.912072	-0.00094282
-0.972018	-0.0240836
-0.922056	-0.000822242
-0.982055	-0.0238877
-0.932032	-0.00147035
-0.992073	-0.0224307
-0.942047	-0.00113876
-1.00206	-0.0255557
-0.951992	-0.00305292
-1.01207	-0.0243951
-0.962079	-0.000239452
-1.02206	-0.0259023
-0.97206	-0.00255052
-1.03207	-0.0270277
-0.982036	-0.00595181
-1.04207	-0.0292132
-0.992024	-0.00526351
-1.0521	-0.0276859
-1.00201	-0.00489173
-1.06209	-0.0285349
-1.01204	-0.00259574
-1.07201	-0.027093
-1.02205	0.00210678
-1.08204	-0.0278567
-1.03201	0.000373483
-1.09206	-0.0281782
-1.04199	-0.00427879
-1.10205	-0.0242394
-1.05209	-0.00057104
-1.11203	-0.0248774
-1.06205	-0.000867459
-1.12213	-0.028746
-1.07206	0.00191085