File: VFSWV_data_prep/Example_data/CoPc(OMe)8_VFSWV_txt_data/CoPc(OMe)8_CNT_VFSWV_scans_02_1_C02.txt
Ewe/V	<I>/mA
-0.122102	-3.57896
-0.0721484	6.26553
-0.13201	-6.92645
-0.0821208	4.97476
-0.14207	-7.54158
-0.0921697	4.66529
-0.152009	-7.69946
-0.102112	4.58033
-0.162054	-7.75368
-0.112084	4.54367
-0.172095	-7.78843
-0.122076	4.52267
-0.182052	-7.81
-0.132075	4.5053
-0.192055	-7.83902
-0.142097	4.49098
-0.202028	-7.85468
-0.1521	4.48793
-0.212088	-7.88064
-0.16208	4.47876
-0.22203	-7.9089
-0.172072	4.46044
-0.232075	-7.94345
-0.182117	4.45566
-0.242051	-7.97877
-0.192067	4.44287
-0.252028	-8.01447
-0.202096	4.41977
-0.262107	-8.06048
-0.212099	4.41175
-0.272076	-8.09924
-0.222068	4.39247
-0.282124	-8.14601
-0.232029	4.37796
-0.292169	-8.18248
-0.24204	4.36536
-0.302165	-8.22238
-0.252016	4.34245
-0.312122	-8.2533
-0.262076	4.3224
-0.322209	-8.29378
-0.272011	4.3014
-0.332128	-8.31363
-0.282113	4.26914
-0.342185	-8.33807
-0.292085	4.24833
-0.352115	-8.36403
-0.302146	4.22981
-0.362126	-8.38656
-0.312126	4.21263
-0.372133	-8.42341
-0.322129	4.19449
-0.382166	-8.45071
-0.332163	4.17521
-0.392127	-8.48488
-0.342173	4.15364
-0.402081	-8.51944
-0.352123	4.1376
-0.412126	-8.56507
-0.362122	4.11202
-0.422098	-8.59962
-0.37211	4.08777
-0.432105	-8.65193
-0.382079	4.07002
-0.442104	-8.70864
-0.392131	4.04863
-0.452111	-8.76686
-0.402077	4.02019
-0.462126	-8.82681
-0.412057	3.99728
-0.472094	-8.89058
-0.422102	3.96177
-0.482109	-8.95969
-0.432063	3.94058
-0.492104	-9.03643
-0.44207	3.90373
-0.502126	-9.12483
-0.4521	3.87166
-0.512107	-9.22697
-0.462084	3.83176
-0.522064	-9.34953
-0.472018	3.78613
-0.532078	-9.48928
-0.482098	3.72103
-0.542085	-9.65633
-0.492047	3.63225
-0.552069	-9.8545
-0.502111	3.5513
-0.562057	-10.0643
-0.51208	3.43255
-0.572052	-10.3167
-0.522056	3.29949
-0.582032	-10.5847
-0.532013	3.11888
-0.592047	-10.8816
-0.54207	2.92319
-0.602031	-11.2188
-0.552092	2.6983
-0.612095	-11.5439
-0.562042	2.44495
-0.622045	-11.8896
-0.572094	2.18531
-0.632048	-12.2388
-0.582013	1.91269
-0.642009	-12.5955
-0.592055	1.62498
-0.652065	-12.9364
-0.602061	1.34834
-0.662072	-13.2612
-0.61208	1.06694
-0.671999	-13.5664
-0.622087	0.807865
-0.682002	-13.8442
-0.632032	0.571323
-0.692009	-14.1012
-0.642035	0.354826
-0.702031	-14.2952
-0.652046	0.191594
-0.712099	-14.4666
-0.662049	0.0646362
-0.722079	-14.5624
-0.67211	-0.0102022
-0.732112	-14.5945
-0.682082	-0.0430394
-0.742096	-14.5668
-0.692066	-0.00562022
-0.752161	-14.466
-0.702107	0.0499358
-0.76211	-14.3164
-0.712133	0.169257
-0.772075	-14.1186
-0.722098	0.333443
-0.782116	-13.8752
-0.732132	0.518248
-0.79207	-13.6147
-0.742154	0.723099
-0.802073	-13.3473
-0.752126	0.911532
-0.81211	-13.1014
-0.762076	1.09175
-0.822106	-12.8557
-0.772117	1.25365
-0.83207	-12.635
-0.78209	1.39684
-0.842135	-12.459
-0.792142	1.49878
-0.852077	-12.307
-0.802122	1.57992
-0.862099	-12.1852
-0.81211	1.64712
-0.872052	-12.089
-0.82214	1.68817
-0.88207	-12.0179
-0.832105	1.72406
-0.892031	-11.9635
-0.842157	1.7506
-0.902061	-11.9179
-0.852103	1.76358
-0.91206	-11.8864
-0.86211	1.76893
-0.922083	-11.8749
-0.872147	1.77294
-0.932047	-11.8538
-0.882086	1.76358
-0.94205	-11.8568
-0.892104	1.7611
-0.952092	-11.8639
-0.902096	1.74392
-0.96211	-11.8685
-0.912156	1.71414
-0.972014	-11.8979
-0.922121	1.69294
-0.982082	-11.9217
-0.932078	1.65953
-0.99205	-11.9536
-0.942157	1.61868
-1.00206	-11.9962
-0.952099	1.5866
-1.01203	-12.0296
-0.962064	1.55186
-1.02198	-12.0882
-0.972109	1.5194
-1.03202	-12.113
-0.982063	1.48924
-1.04202	-12.1422
-0.992111	1.47244
-1.05201	-12.1682
-1.00206	1.45965
-1.06201	-12.1691
-1.01212	1.46232
-1.07209	-12.1751
-1.02209	1.46614
-1.08204	-12.169
-1.03207	1.47339
-1.09206	-12.1565
-1.04207	1.48007
-1.10206	-12.1512
-1.05208	1.48332
-1.11204	-12.148
-1.06206	1.49153
-1.12209	-12.1611
-1.07211	1.49917