File: VFSWV_data_prep/Example_data/CoPc(OMe)8_VFSWV_txt_data/CoPc(OMe)8_CNT_VFSWV_scans_45_44_C02.txt
Ewe/V	<I>/mA
-0.122045	-0.00161102
-0.0720949	0.0269116
-0.132022	-0.0140204
-0.0821017	0.0253079
-0.142093	-0.0177242
-0.0920781	0.0212987
-0.152073	-0.0160823
-0.102096	0.0204968
-0.16205	-0.0180678
-0.112119	0.0202677
-0.172026	-0.0187933
-0.122019	0.0186259
-0.182056	-0.023528
-0.132086	0.0190077
-0.192013	-0.0227643
-0.142074	0.0224824
-0.202062	-0.0241007
-0.152081	0.0216041
-0.212015	-0.0265826
-0.162084	0.0142349
-0.222072	-0.0263917
-0.172057	0.0175186
-0.232021	-0.0268499
-0.182048	0.0112566
-0.242066	-0.0262771
-0.192036	0.0189313
-0.25205	-0.0325773
-0.202012	0.0180913
-0.262046	-0.0344864
-0.212011	0.0118675
-0.272007	-0.0366629
-0.222072	0.0113711
-0.282124	-0.0392593
-0.232041	0.0182441
-0.292116	-0.0389157
-0.242051	0.0225205
-0.302119	-0.0334555
-0.252016	0.0233606
-0.312118	-0.0329973
-0.261992	0.0180913
-0.32214	-0.039603
-0.272037	0.0185495
-0.332079	-0.0373502
-0.282102	0.0159531
-0.342135	-0.0489959
-0.292066	0.0129366
-0.352131	-0.0421994
-0.302169	0.0186259
-0.362126	-0.0451395
-0.312107	0.0191986
-0.372121	-0.0513633
-0.322106	0.0133185
-0.382078	-0.0433449
-0.332075	0.0212605
-0.392093	-0.0494923
-0.342093	0.0198859
-0.402104	-0.0544943
-0.352088	0.0230169
-0.412137	-0.0557543
-0.362133	0.019275
-0.422083	-0.0541506
-0.372117	0.0183204
-0.432109	-0.0524706
-0.382105	0.020955
-0.442024	-0.0524706
-0.392108	0.0273316
-0.452046	-0.0509814
-0.402096	0.0166022
-0.462114	-0.0599544
-0.412111	0.0120203
-0.472083	-0.0594198
-0.422095	0.0179768
-0.482075	-0.0651855
-0.432082	0.0173659
-0.492074	-0.0685837
-0.442059	0.0175186
-0.502077	-0.0669419
-0.452031	0.0196568
-0.512034	-0.0709893
-0.462088	0.0222533
-0.52206	-0.0698056
-0.472106	0.0196568
-0.532075	-0.072402
-0.482105	0.0212605
-0.542055	-0.0788549
-0.492078	0.024086
-0.55202	-0.0878661
-0.502062	0.0257279
-0.562011	-0.0895079
-0.512068	0.0313408
-0.572056	-0.104285
-0.522052	0.0322572
-0.582025	-0.115854
-0.532086	0.0356554
-0.59202	-0.141628
-0.542051	0.0391683
-0.602061	-0.154495
-0.552069	0.0457739
-0.61203	-0.171334
-0.562057	0.0554723
-0.622022	-0.193403
-0.57206	0.0586033
-0.632082	-0.214213
-0.582048	0.0794893
-0.642039	-0.22857
-0.592051	0.0947625
-0.651993	-0.242888
-0.602042	0.110265
-0.662026	-0.246363
-0.61208	0.123361
-0.67206	-0.258162
-0.621987	0.129814
-0.682006	-0.247852
-0.632029	0.141498
-0.692062	-0.244912
-0.642074	0.143102
-0.702016	-0.234717
-0.652061	0.140582
-0.712106	-0.220513
-0.662045	0.137718
-0.722079	-0.21448
-0.671999	0.12424
-0.732112	-0.19978
-0.681979	0.107019
-0.742104	-0.194129
-0.692062	0.102094
-0.752092	-0.194014
-0.702122	0.093197
-0.762095	-0.18844
-0.712137	0.0811694
-0.772075	-0.180536
-0.722106	0.0717382
-0.782101	-0.178283
-0.732128	0.0690654
-0.792112	-0.17855
-0.742123	0.0568469
-0.802077	-0.179199
-0.752103	0.0551669
-0.812068	-0.176679
-0.762061	0.0592906
-0.822064	-0.171945
-0.772098	0.0493631
-0.832124	-0.179734
-0.782067	0.0488667
-0.842051	-0.171563
-0.792032	0.046423
-0.852084	-0.172365
-0.802057	0.046423
-0.862064	-0.176641
-0.812053	0.0422611
-0.872067	-0.179543
-0.822083	0.0421847
-0.882051	-0.180994
-0.832082	0.0416883
-0.8921	-0.186301
-0.842051	0.0372209
-0.902069	-0.178474
-0.852073	0.0400846
-0.912064	-0.173357
-0.862072	0.0426047
-0.922121	-0.178627
-0.872105	0.044132
-0.931971	-0.175916
-0.882112	0.0411919
-0.942035	-0.183247
-0.892058	0.0426047
-0.952034	-0.179238
-0.902061	0.0381373
-0.962007	-0.177328
-0.912095	0.0386719
-0.972044	-0.175687
-0.922044	0.039321
-0.982021	-0.176603
-0.932089	0.0388628
-0.992031	-0.177825
-0.94205	0.0434065
-1.00206	-0.181109
-0.952046	0.039741
-1.01208	-0.179696
-0.962099	0.0407719
-1.02198	-0.18023
-0.97204	0.0384428
-1.03198	-0.178092
-0.982032	0.0371446
-1.04197	-0.178321
-0.992008	0.0435975
-1.05202	-0.180383
-1.00205	0.0398555
-1.06204	-0.188974
-1.01206	0.0421465
-1.07201	-0.193823
-1.02204	0.0387482
-1.08205	-0.183132
-1.03209	0.0382137
-1.09208	-0.192869
-1.04203	0.038061
-1.10204	-0.198787
-1.05203	0.03619
-1.11204	-0.19348
-1.06205	0.0428338
-1.12211	-0.206386
-1.07205	0.0399319