File: VFSWV_data_prep/Example_data/CoPc(OMe)8_VFSWV_txt_data/CoPc(OMe)8_CNT_VFSWV_scans_22_21_C02.txt
Ewe/V	<I>/mA
-0.122061	-0.0672855
-0.0720988	0.171166
-0.132037	-0.186607
-0.0820865	0.157325
-0.142089	-0.194243
-0.092101	0.149784
-0.152058	-0.202835
-0.102047	0.15217
-0.162099	-0.202739
-0.11205	0.151502
-0.17203	-0.20503
-0.122072	0.137375
-0.182044	-0.214194
-0.132125	0.142816
-0.192021	-0.218012
-0.142074	0.147302
-0.202077	-0.22899
-0.152035	0.138425
-0.212012	-0.237008
-0.162034	0.143102
-0.222041	-0.244549
-0.17206	0.149879
-0.232037	-0.254381
-0.182033	0.156466
-0.242013	-0.274714
-0.192036	0.15933
-0.252047	-0.281778
-0.202039	0.153029
-0.262046	-0.291514
-0.212034	0.159425
-0.271992	-0.300296
-0.222026	0.171071
-0.282113	-0.313183
-0.232018	0.175653
-0.292147	-0.320342
-0.24204	0.177848
-0.302104	-0.332179
-0.252054	0.18033
-0.312122	-0.345447
-0.262011	0.183576
-0.322091	-0.343729
-0.272007	0.194076
-0.332105	-0.355471
-0.28214	0.190067
-0.342078	-0.363393
-0.292093	0.197131
-0.352111	-0.36893
-0.302169	0.206676
-0.362061	-0.379621
-0.312103	0.197417
-0.372091	-0.388594
-0.322118	0.200758
-0.382109	-0.40549
-0.332098	0.214599
-0.392166	-0.413699
-0.342104	0.213167
-0.402085	-0.427063
-0.352104	0.211736
-0.412057	-0.435654
-0.362065	0.223286
-0.422098	-0.452455
-0.372106	0.228059
-0.432056	-0.479183
-0.382052	0.234454
-0.442104	-0.497606
-0.392074	0.242186
-0.452088	-0.516125
-0.402104	0.252114
-0.46211	-0.554403
-0.412008	0.271205
-0.472018	-0.579413
-0.422098	0.28476
-0.482124	-0.616259
-0.432059	0.296311
-0.492101	-0.654442
-0.442097	0.313588
-0.502077	-0.717539
-0.452085	0.342416
-0.512046	-0.787032
-0.462103	0.365326
-0.522041	-0.86903
-0.47206	0.417541
-0.532044	-0.98921
-0.482052	0.469374
-0.542078	-1.13249
-0.492051	0.537817
-0.552058	-1.30135
-0.502039	0.642534
-0.56203	-1.49943
-0.512038	0.767964
-0.572041	-1.72776
-0.521999	0.919836
-0.581987	-1.97375
-0.532048	1.10951
-0.592051	-2.24418
-0.542047	1.31312
-0.602069	-2.50755
-0.552042	1.53009
-0.612057	-2.77054
-0.562042	1.74621
-0.622045	-3.01681
-0.572029	1.94247
-0.632021	-3.22367
-0.582009	2.10866
-0.642035	-3.41726
-0.59202	2.23972
-0.652004	-3.55128
-0.602042	2.33995
-0.661961	-3.6559
-0.612053	2.41479
-0.672041	-3.70983
-0.622033	2.45154
-0.682017	-3.70449
-0.63201	2.45507
-0.692032	-3.66401
-0.642032	2.43178
-0.702038	-3.58288
-0.652008	2.37966
-0.712118	-3.46145
-0.66203	2.30893
-0.72206	-3.29994
-0.672083	2.21595
-0.732128	-3.12019
-0.681987	2.1037
-0.742085	-2.93119
-0.692028	1.98046
-0.752096	-2.73063
-0.702126	1.83775
-0.762099	-2.54392
-0.712106	1.70631
-0.772079	-2.36312
-0.722106	1.57601
-0.782101	-2.2103
-0.732093	1.4501
-0.792032	-2.061
-0.742116	1.33689
-0.802099	-1.95018
-0.752077	1.22597
-0.812091	-1.84823
-0.762114	1.13337
-0.822083	-1.77148
-0.772094	1.04909
-0.832109	-1.70657
-0.782143	0.985606
-0.842119	-1.66495
-0.792031	0.929382
-0.852115	-1.61999
-0.802103	0.888431
-0.862083	-1.59021
-0.812087	0.84328
-0.872075	-1.57684
-0.822037	0.821134
-0.882082	-1.55393
-0.832048	0.792783
-0.8921	-1.55451
-0.842104	0.781233
-0.902099	-1.54448
-0.852138	0.755746
-0.912049	-1.54573
-0.862091	0.753359
-0.922037	-1.54496
-0.872079	0.745436
-0.932108	-1.5546
-0.882067	0.743623
-0.94205	-1.55775
-0.892085	0.733791
-0.952053	-1.55813
-0.902065	0.738086
-0.962003	-1.56482
-0.912057	0.727395
-0.972098	-1.56358
-0.922082	0.748395
-0.982043	-1.56758
-0.932063	0.743336
-0.991989	-1.57331
-0.942062	0.743814
-1.00203	-1.58104
-0.952061	0.750305
-1.01206	-1.57045
-0.962049	0.755937
-1.02202	-1.57188
-0.972056	0.755173
-1.03204	-1.57283
-0.982063	0.753646
-1.04206	-1.57474
-0.992066	0.759468
-1.05206	-1.57474
-1.00209	0.761759
-1.06206	-1.57436
-1.01203	0.76195
-1.07203	-1.58467
-1.02206	0.760709
-1.08202	-1.58362
-1.03199	0.760041
-1.09205	-1.58878
-1.04205	0.762905
-1.10202	-1.60052
-1.05204	0.7525
-1.11201	-1.61808
-1.06204	0.757941
-1.12211	-1.64385
-1.07199	0.755459