File: VFSWV_data_prep/Example_data/CoPc(OMe)8_VFSWV_txt_data/CoPc(OMe)8_CNT_VFSWV_scans_23_22_C02.txt
Ewe/V	<I>/mA
-0.122072	-0.0634672
-0.0720415	0.15723
-0.132083	-0.155965
-0.0820827	0.140334
-0.142063	-0.167706
-0.0920667	0.137947
-0.152093	-0.168947
-0.102085	0.128402
-0.162065	-0.183266
-0.112088	0.131361
-0.171984	-0.175916
-0.122045	0.133938
-0.182006	-0.186893
-0.132064	0.134224
-0.192002	-0.191093
-0.142025	0.131361
-0.202005	-0.197203
-0.152073	0.130788
-0.212034	-0.216867
-0.162061	0.125156
-0.222026	-0.222403
-0.172018	0.137375
-0.232033	-0.223644
-0.18204	0.136515
-0.242032	-0.234431
-0.192005	0.130024
-0.252028	-0.247604
-0.202058	0.137947
-0.262027	-0.264404
-0.212061	0.13957
-0.271995	-0.265264
-0.221988	0.154461
-0.282071	-0.275477
-0.231995	0.149211
-0.292112	-0.290941
-0.242024	0.159998
-0.30213	-0.29581
-0.25197	0.167157
-0.312115	-0.309365
-0.262019	0.163816
-0.322171	-0.313088
-0.271992	0.172885
-0.33209	-0.321106
-0.282105	0.173362
-0.342082	-0.326642
-0.292101	0.173171
-0.352077	-0.33552
-0.302134	0.172121
-0.362095	-0.342393
-0.312099	0.182621
-0.372075	-0.350029
-0.322045	0.181476
-0.382056	-0.366162
-0.332098	0.186058
-0.392112	-0.372175
-0.342127	0.179757
-0.402127	-0.38258
-0.352085	0.18854
-0.412057	-0.404154
-0.362095	0.199135
-0.422064	-0.409595
-0.372083	0.201426
-0.432052	-0.426682
-0.382105	0.213358
-0.442093	-0.453028
-0.392074	0.217558
-0.452069	-0.466105
-0.402077	0.228727
-0.462126	-0.495411
-0.412084	0.229395
-0.472041	-0.526243
-0.422064	0.245146
-0.482132	-0.557076
-0.432071	0.258414
-0.492051	-0.595927
-0.442078	0.27636
-0.50205	-0.65301
-0.452031	0.29612
-0.51203	-0.706562
-0.462038	0.32237
-0.522056	-0.795432
-0.472075	0.361985
-0.532059	-0.901485
-0.482059	0.405895
-0.542032	-1.03789
-0.492028	0.472334
-0.552062	-1.20198
-0.502054	0.563781
-0.56203	-1.37772
-0.512042	0.683771
-0.57201	-1.59899
-0.522049	0.826002
-0.58201	-1.83754
-0.532055	1.00231
-0.592074	-2.09422
-0.542032	1.20879
-0.60205	-2.35186
-0.552035	1.42137
-0.61203	-2.61141
-0.56203	1.6287
-0.622083	-2.84318
-0.572033	1.82639
-0.632036	-3.05777
-0.582052	1.99678
-0.642058	-3.23274
-0.591994	2.12956
-0.652012	-3.37869
-0.602046	2.23886
-0.662042	-3.47424
-0.612015	2.31446
-0.67201	-3.52446
-0.621995	2.34978
-0.681987	-3.5194
-0.632048	2.3453
-0.69197	-3.47444
-0.642001	2.32029
-0.702008	-3.39005
-0.651951	2.2738
-0.71208	-3.26548
-0.661992	2.21309
-0.722067	-3.10864
-0.671995	2.10436
-0.732124	-2.93004
-0.682002	1.99573
-0.742089	-2.74238
-0.69199	1.87593
-0.75205	-2.54144
-0.702107	1.73752
-0.762087	-2.36761
-0.712049	1.60827
-0.772125	-2.19741
-0.722109	1.47158
-0.782131	-2.04115
-0.73212	1.35369
-0.792016	-1.90474
-0.742062	1.23895
-0.802084	-1.80556
-0.752088	1.13824
-0.812026	-1.70991
-0.761999	1.05033
-0.822128	-1.63841
-0.77206	0.973674
-0.83204	-1.57809
-0.782055	0.910768
-0.842066	-1.53647
-0.792081	0.852253
-0.852103	-1.4959
-0.802027	0.811779
-0.862064	-1.46659
-0.812019	0.777128
-0.872094	-1.4475
-0.82209	0.744386
-0.882055	-1.44005
-0.832105	0.723863
-0.892054	-1.4285
-0.842058	0.716035
-0.902027	-1.42259
-0.852126	0.703817
-0.912076	-1.42535
-0.862072	0.684248
-0.922067	-1.4286
-0.872079	0.683103
-0.932036	-1.43414
-0.882009	0.68358
-0.942028	-1.42965
-0.892035	0.676516
-0.952057	-1.44235
-0.902065	0.681575
-0.962022	-1.44664
-0.912011	0.675944
-0.972033	-1.44425
-0.922033	0.678234
-0.982024	-1.44702
-0.932017	0.684248
-0.991997	-1.44626
-0.942058	0.69093
-1.00201	-1.4453
-0.951989	0.690262
-1.01201	-1.44502
-0.962049	0.697326
-1.02204	-1.44225
-0.97201	0.695226
-1.03202	-1.45208
-0.982009	0.698949
-1.04204	-1.44874
-0.992039	0.694367
-1.05205	-1.45323
-1.00201	0.686157
-1.06201	-1.45685
-1.01205	0.699712
-1.07202	-1.45953
-1.02206	0.696849
-1.08204	-1.46239
-1.03203	0.693699
-1.09205	-1.4705
-1.04202	0.706681
-1.10205	-1.48015
-1.05204	0.698853
-1.112	-1.49313
-1.06202	0.701717
-1.12217	-1.51661
-1.07205	0.693317