File: VFSWV_data_prep/Example_data/CoPc(OMe)8_VFSWV_txt_data/CoPc(OMe)8_CNT_VFSWV_scans_27_26_C02.txt
Ewe/V	<I>/mA
-0.122114	-0.0321573
-0.0720835	0.074831
-0.132083	-0.0898134
-0.0821323	0.0715473
-0.142093	-0.0953117
-0.0921124	0.0653617
-0.152051	-0.100886
-0.102135	0.0634525
-0.162073	-0.104476
-0.112115	0.0665072
-0.172095	-0.101345
-0.122061	0.0592524
-0.182071	-0.109668
-0.132075	0.0641398
-0.192051	-0.115472
-0.142101	0.0578778
-0.202066	-0.115778
-0.152112	0.0600161
-0.212096	-0.125171
-0.162096	0.0577251
-0.222076	-0.129905
-0.172057	0.0529141
-0.232056	-0.134029
-0.182102	0.0672708
-0.242044	-0.140978
-0.192074	0.0588706
-0.252016	-0.141895
-0.202089	0.0680345
-0.262076	-0.155182
-0.212042	0.0667363
-0.27203	-0.159383
-0.222076	0.0684163
-0.282144	-0.16763
-0.232029	0.0683399
-0.292154	-0.174197
-0.242013	0.0707836
-0.302138	-0.173281
-0.252031	0.0740674
-0.31213	-0.179849
-0.262031	0.0697909
-0.322152	-0.192525
-0.272018	0.0755947
-0.332094	-0.190692
-0.282132	0.0728455
-0.342082	-0.203522
-0.29215	0.0760529
-0.352142	-0.207875
-0.302131	0.0791839
-0.362111	-0.20734
-0.312164	0.0766638
-0.372125	-0.215053
-0.322125	0.082544
-0.382132	-0.222766
-0.332163	0.0841476
-0.392093	-0.225362
-0.342135	0.0859041
-0.4021	-0.235672
-0.35213	0.0843767
-0.412084	-0.239643
-0.362137	0.0887296
-0.42211	-0.254763
-0.372133	0.0847586
-0.432113	-0.25568
-0.382105	0.0976644
-0.44207	-0.269578
-0.39212	0.103697
-0.452107	-0.282408
-0.402134	0.101635
-0.462069	-0.282408
-0.412042	0.103392
-0.47211	-0.313183
-0.422072	0.111792
-0.482124	-0.320514
-0.432056	0.119199
-0.492097	-0.352206
-0.442074	0.12424
-0.502073	-0.378476
-0.452085	0.134778
-0.512065	-0.42231
-0.46208	0.149898
-0.522091	-0.469656
-0.472072	0.168455
-0.532052	-0.527465
-0.482059	0.189685
-0.542066	-0.615515
-0.492047	0.222828
-0.552058	-0.715019
-0.502077	0.270022
-0.562068	-0.846368
-0.512049	0.340125
-0.572026	-1.00429
-0.522064	0.421226
-0.582086	-1.17932
-0.532109	0.535698
-0.592077	-1.36451
-0.54207	0.688582
-0.602046	-1.57551
-0.552054	0.847652
-0.612057	-1.78231
-0.562026	1.02558
-0.622029	-1.97406
-0.572007	1.19741
-0.632021	-2.15016
-0.582059	1.35075
-0.64202	-2.30236
-0.59202	1.49493
-0.652077	-2.41553
-0.602081	1.60405
-0.662064	-2.4935
-0.612099	1.68332
-0.672068	-2.51923
-0.622068	1.73357
-0.682036	-2.51274
-0.632048	1.74266
-0.692039	-2.46379
-0.642039	1.72609
-0.702054	-2.36979
-0.652	1.6792
-0.712145	-2.25707
-0.662064	1.60405
-0.722109	-2.10877
-0.672029	1.52097
-0.732139	-1.96322
-0.682059	1.41062
-0.7421	-1.80682
-0.692047	1.30386
-0.752103	-1.6563
-0.702115	1.18916
-0.762156	-1.51816
-0.712083	1.06743
-0.772087	-1.39406
-0.722102	0.960215
-0.78207	-1.28845
-0.732101	0.861856
-0.79207	-1.20177
-0.742119	0.771821
-0.802138	-1.13282
-0.752111	0.694997
-0.81208	-1.076
-0.762125	0.635279
-0.822106	-1.03278
-0.772163	0.572888
-0.832105	-0.994136
-0.782132	0.527221
-0.842146	-0.973059
-0.792077	0.494308
-0.852096	-0.947018
-0.802096	0.471322
-0.862106	-0.935487
-0.812068	0.435277
-0.872075	-0.925483
-0.822102	0.429931
-0.882086	-0.92113
-0.832139	0.414658
-0.892054	-0.92724
-0.842089	0.407022
-0.902099	-0.924032
-0.852115	0.393811
-0.912129	-0.919756
-0.862114	0.387243
-0.92209	-0.922505
-0.872086	0.390832
-0.932086	-0.928309
-0.882047	0.384341
-0.942058	-0.937167
-0.892112	0.373803
-0.952076	-0.933043
-0.902088	0.377163
-0.96206	-0.931669
-0.912026	0.379836
-0.972086	-0.935182
-0.922109	0.376475
-0.982028	-0.938694
-0.932024	0.381821
-0.992054	-0.932814
-0.942085	0.386403
-1.00211	-0.93984
-0.952095	0.393581
-1.01209	-0.934723
-0.962068	0.389839
-1.02206	-0.936862
-0.972056	0.385258
-1.03202	-0.942818
-0.982055	0.388465
-1.0421	-0.939458
-0.992062	0.389076
-1.05204	-0.945491
-1.00203	0.390069
-1.06207	-0.935945
-1.01206	0.392741
-1.07204	-0.945567
-1.02204	0.387854
-1.08207	-0.9474
-1.03207	0.386327
-1.09202	-0.959924
-1.04205	0.386021
-1.10208	-0.957633
-1.05202	0.387014
-1.11202	-0.973135
-1.06204	0.38877
-1.12211	-0.997572
-1.07201	0.385792