File: VFSWV_data_prep/Example_data/CoPc(OMe)8_VFSWV_txt_data/CoPc(OMe)8_CNT_VFSWV_scans_51_50_C02.txt
Ewe/V	<I>/mA
-0.122038	-0.0100112
-0.072072	0.0120839
-0.132048	-0.0125822
-0.0821056	0.00852016
-0.14207	-0.0144659
-0.092059	0.00755286
-0.152028	-0.0148477
-0.102043	0.0107857
-0.161989	-0.0129131
-0.112042	0.00556736
-0.172072	-0.0143386
-0.122053	0.0112693
-0.181987	-0.0155605
-0.132052	0.00533826
-0.192028	-0.0185133
-0.14204	0.009462
-0.202039	-0.017546
-0.15202	0.00630556
-0.212054	-0.022688
-0.162038	0.00867289
-0.222045	-0.0217716
-0.172045	0.0107093
-0.232037	-0.0247244
-0.18206	0.00880017
-0.242002	-0.0237062
-0.192032	0.00790924
-0.252031	-0.0293572
-0.201997	0.00460006
-0.262053	-0.028899
-0.212012	0.00462551
-0.272018	-0.0262517
-0.222049	0.00648374
-0.282132	-0.0301209
-0.232029	0.0028691
-0.292082	-0.0275244
-0.242017	0.00518553
-0.302127	-0.0212115
-0.252016	0.00279273
-0.312114	-0.0338628
-0.261973	-0.000389169
-0.322087	-0.0295609
-0.272053	0.00638192
-0.332079	-0.0301463
-0.282037	0.00678921
-0.342082	-0.0335828
-0.292112	0.00477824
-0.352104	-0.0312155
-0.302047	0.00475279
-0.362084	-0.0306809
-0.312053	0.00829106
-0.372068	-0.0352883
-0.322133	0.00314911
-0.382101	-0.0381647
-0.332109	0.00467642
-0.392028	-0.0374265
-0.342085	0.0077565
-0.402054	-0.0327173
-0.352138	0.00801106
-0.412088	-0.034321
-0.362099	0.00541462
-0.422087	-0.0398702
-0.372095	0.0114221
-0.432006	-0.0389029
-0.382113	0.00846925
-0.442059	-0.0374774
-0.392108	0.00750195
-0.452058	-0.0381138
-0.402088	0.00340366
-0.462069	-0.0372993
-0.412076	0.00905472
-0.472037	-0.0412448
-0.422049	0.0167677
-0.48201	-0.0387502
-0.432044	0.0140949
-0.492024	-0.0451649
-0.442078	0.00859653
-0.502027	-0.0470232
-0.452073	0.00958928
-0.512065	-0.048525
-0.462057	0.00727285
-0.52206	-0.0514524
-0.47206	0.0107348
-0.532025	-0.0467431
-0.482078	0.0109384
-0.542081	-0.0506378
-0.492055	0.0096911
-0.55205	-0.053667
-0.502039	0.00974201
-0.562042	-0.0670564
-0.512038	0.00986929
-0.572018	-0.0637472
-0.522094	0.0131276
-0.581975	-0.0606162
-0.532075	0.0153676
-0.591963	-0.0688128
-0.541986	0.0204587
-0.602058	-0.0679219
-0.552031	0.0292662
-0.612045	-0.0788676
-0.562034	0.027637
-0.622026	-0.0865042
-0.57201	0.0250406
-0.632021	-0.0956936
-0.582032	0.0254733
-0.641974	-0.104145
-0.592039	0.0362918
-0.651993	-0.104908
-0.602042	0.0368773
-0.66203	-0.103814
-0.612003	0.0363173
-0.671972	-0.105672
-0.622056	0.0406956
-0.682006	-0.109694
-0.632029	0.0438775
-0.692055	-0.11145
-0.642001	0.0485103
-0.702061	-0.107378
-0.652	0.0406192
-0.712087	-0.109338
-0.662015	0.0397792
-0.722117	-0.103432
-0.672052	0.0431138
-0.732101	-0.105952
-0.682006	0.0442084
-0.742123	-0.107607
-0.69199	0.0355027
-0.752073	-0.109338
-0.702126	0.0337208
-0.762091	-0.110356
-0.712103	0.0321681
-0.772037	-0.109643
-0.722102	0.0287825
-0.782128	-0.107632
-0.732139	0.0203568
-0.792093	-0.103686
-0.742116	0.0259315
-0.80205	-0.108396
-0.752061	0.0249133
-0.812045	-0.104959
-0.76208	0.0249133
-0.822018	-0.105927
-0.772041	0.0232587
-0.832067	-0.108396
-0.782055	0.0204078
-0.842043	-0.107225
-0.792073	0.0217569
-0.852103	-0.102134
-0.802065	0.0224951
-0.862045	-0.11117
-0.81208	0.0183713
-0.872079	-0.107658
-0.822102	0.020255
-0.882063	-0.10865
-0.832082	0.0170477
-0.892058	-0.106843
-0.842093	0.0198223
-0.902019	-0.109338
-0.852065	0.0186513
-0.912095	-0.11173
-0.862102	0.0178113
-0.922014	-0.118272
-0.872098	0.0198732
-0.931994	-0.110534
-0.882074	0.0123384
-0.942039	-0.106563
-0.892073	0.0202296
-0.952046	-0.105748
-0.902076	0.0176077
-0.962018	-0.106767
-0.912099	0.0232333
-0.972052	-0.105468
-0.922056	0.0217823
-0.982055	-0.108039
-0.93204	0.0183459
-0.992024	-0.109745
-0.942031	0.0161567
-1.00202	-0.111018
-0.952027	0.019415
-1.01206	-0.111196
-0.962045	0.0185241
-1.02202	-0.112672
-0.972018	0.0183713
-1.03199	-0.108701
-0.982028	0.0216041
-1.04202	-0.10977
-0.99205	0.0226478
-1.05198	-0.111349
-1.00206	0.0200514
-1.06203	-0.111552
-1.01208	0.0184986
-1.07199	-0.115803
-1.02203	0.0106329
-1.08201	-0.116287
-1.03199	0.0182186
-1.09196	-0.122116
-1.04205	0.0209169
-1.10202	-0.128225
-1.05199	0.0183968
-1.11203	-0.125756
-1.06203	0.013713
-1.12212	-0.131127
-1.07203	0.0169458