File: VFSWV_data_prep/Example_data/CoPc(OMe)8_VFSWV_txt_data/CoPc(OMe)8_CNT_VFSWV_scans_12_11_C02.txt
Ewe/V	<I>/mA
-0.122095	-0.349075
-0.0720949	0.843884
-0.132083	-0.970692
-0.082117	0.784828
-0.142112	-0.975655
-0.0920629	0.767264
-0.152142	-0.981892
-0.102112	0.77121
-0.16208	-0.991565
-0.112084	0.768282
-0.172156	-1.00111
-0.12211	0.768155
-0.182121	-1.01435
-0.132144	0.763573
-0.192089	-1.03929
-0.14212	0.772228
-0.202073	-1.05062
-0.152096	0.773628
-0.212115	-1.06882
-0.162096	0.786101
-0.222041	-1.09873
-0.17208	0.793865
-0.232098	-1.13271
-0.18206	0.803156
-0.242097	-1.15155
-0.192017	0.823775
-0.252062	-1.17815
-0.202085	0.829502
-0.262061	-1.21875
-0.212095	0.851776
-0.272087	-1.23988
-0.222095	0.855467
-0.282193	-1.2717
-0.232094	0.877485
-0.292158	-1.29397
-0.242063	0.894668
-0.302142	-1.31166
-0.252077	0.910195
-0.312134	-1.33839
-0.262053	0.91885
-0.322133	-1.35519
-0.272087	0.926996
-0.332124	-1.37518
-0.282155	0.936541
-0.342158	-1.39592
-0.292147	0.944814
-0.352165	-1.41921
-0.302142	0.957287
-0.362179	-1.43665
-0.312176	0.962888
-0.372121	-1.45612
-0.322163	0.977906
-0.382178	-1.47776
-0.332155	0.980961
-0.392101	-1.51149
-0.342124	0.991779
-0.402096	-1.54254
-0.352108	1.00387
-0.412107	-1.5708
-0.362153	1.02767
-0.422121	-1.61827
-0.372114	1.03683
-0.432101	-1.66167
-0.382166	1.06662
-0.442082	-1.71437
-0.392154	1.08838
-0.452107	-1.7668
-0.402081	1.12504
-0.462149	-1.82217
-0.412118	1.15304
-0.472079	-1.88963
-0.422098	1.19937
-0.482071	-1.98025
-0.432117	1.23309
-0.492101	-2.07507
-0.442158	1.28566
-0.502043	-2.18478
-0.452027	1.35057
-0.512107	-2.32313
-0.462107	1.42503
-0.522071	-2.48426
-0.472072	1.52634
-0.532059	-2.68103
-0.482098	1.64827
-0.54207	-2.9114
-0.492101	1.79489
-0.552058	-3.16659
-0.5021	1.96188
-0.562114	-3.46009
-0.512099	2.15852
-0.572068	-3.77013
-0.522083	2.36636
-0.582113	-4.08387
-0.532036	2.58171
-0.592077	-4.42395
-0.542062	2.77288
-0.602092	-4.73043
-0.552126	2.9447
-0.61208	-5.02851
-0.562007	3.09845
-0.622079	-5.30826
-0.572045	3.20918
-0.63209	-5.54971
-0.582097	3.30082
-0.642116	-5.76353
-0.592047	3.35453
-0.652054	-5.93752
-0.602077	3.39284
-0.662061	-6.06454
-0.612049	3.40939
-0.672098	-6.14638
-0.622033	3.40455
-0.682059	-6.18952
-0.632017	3.39539
-0.692055	-6.18787
-0.642051	3.36599
-0.702038	-6.12945
-0.652023	3.34079
-0.712232	-6.05499
-0.662087	3.28911
-0.72209	-5.92275
-0.672029	3.24126
-0.732154	-5.75589
-0.682002	3.17635
-0.742169	-5.57211
-0.692077	3.09565
-0.752088	-5.35892
-0.702184	2.9932
-0.762156	-5.13619
-0.71216	2.89392
-0.772102	-4.92045
-0.722129	2.78828
-0.782128	-4.71388
-0.732143	2.6773
-0.792135	-4.51228
-0.742119	2.57191
-0.802119	-4.33638
-0.752088	2.4622
-0.81211	-4.18734
-0.762141	2.35936
-0.822113	-4.05981
-0.772098	2.26798
-0.832101	-3.94679
-0.782112	2.18945
-0.842081	-3.84433
-0.792123	2.12339
-0.852145	-3.77038
-0.802122	2.06268
-0.862091	-3.71349
-0.81216	2.01202
-0.872155	-3.65978
-0.822144	1.97104
-0.882078	-3.63025
-0.832116	1.93744
-0.892123	-3.60989
-0.842127	1.90931
-0.902115	-3.58876
-0.85208	1.88908
-0.912121	-3.58736
-0.862118	1.8738
-0.922079	-3.58189
-0.872136	1.86171
-0.932131	-3.57756
-0.882086	1.83855
-0.942096	-3.60047
-0.892123	1.82327
-0.952099	-3.5992
-0.902054	1.81271
-0.962133	-3.61587
-0.912091	1.82187
-0.972044	-3.6258
-0.922071	1.82098
-0.982059	-3.63114
-0.932066	1.82951
-0.992066	-3.64324
-0.942073	1.83282
-1.00213	-3.64413
-0.952069	1.84058
-1.01206	-3.65762
-0.962121	1.83893
-1.02207	-3.65113
-0.972082	1.85598
-1.03203	-3.64591
-0.982051	1.86324
-1.04206	-3.65545
-0.992131	1.85968
-1.05206	-3.65495
-1.00205	1.86515
-1.06201	-3.65355
-1.01208	1.86006
-1.07205	-3.65953
-1.02204	1.87113
-1.08205	-3.65851
-1.03202	1.86655
-1.09208	-3.67455
-1.04207	1.86528
-1.1021	-3.67709
-1.05206	1.86744
-1.11204	-3.69033
-1.06208	1.85471
-1.12214	-3.71655
-1.07203	1.86808