File: VFSWV_data_prep/Example_data/CoPc(OMe)8_VFSWV_txt_data/CoPc(OMe)8_CNT_VFSWV_scans_73_72_C02.txt
Ewe/V	<I>/mA
-0.122095	-0.00430635
-0.0721026	-0.0077387
-0.132113	-0.00793585
-0.0820636	-0.00585116
-0.142067	-0.0055997
-0.0920552	-0.00606519
-0.151982	-0.00448144
-0.102051	-0.00157026
-0.162042	-0.00491469
-0.112077	-0.000886777
-0.172015	-0.00503091
-0.122061	-0.000143808
-0.181999	-0.00201948
-0.132094	-0.00353265
-0.192002	-0.00839997
-0.142009	-0.00571288
-0.202012	-0.0107685
-0.152012	-0.00651563
-0.212034	-0.0135204
-0.162023	-0.009545
-0.222057	-0.0119656
-0.172011	-0.00847467
-0.232018	-0.00897682
-0.181995	-0.0107273
-0.241998	-0.0161619
-0.191998	-0.0118055
-0.251997	-0.0176633
-0.202058	-0.0139913
-0.262011	-0.0169719
-0.212057	-0.0120664
-0.272018	-0.0130244
-0.221995	-0.0141736
-0.282147	-0.0178035
-0.23201	-0.0146712
-0.292078	-0.0176559
-0.241994	-0.0162045
-0.302096	-0.0177464
-0.25202	-0.0143974
-0.312061	-0.0176194
-0.262027	-0.0125736
-0.322064	-0.0154443
-0.272022	-0.0135426
-0.332117	-0.0164654
-0.282113	-0.0143259
-0.342085	-0.0160831
-0.292135	-0.0113052
-0.352069	-0.0155379
-0.302104	-0.00827143
-0.362095	-0.012228
-0.31208	-0.0104518
-0.372087	-0.0100581
-0.322068	-0.00785963
-0.382082	-0.0117051
-0.33209	-0.00952447
-0.392127	-0.0128331
-0.342105	-0.00991299
-0.402111	-0.00653921
-0.3521	-0.00579396
-0.412084	-0.00819248
-0.362049	-0.00873191
-0.422072	-0.0115349
-0.372076	-0.00943395
-0.432052	-0.0104514
-0.382029	-0.00752177
-0.442036	-0.0106193
-0.392055	-0.0078
-0.452092	-0.00851255
-0.402085	-0.00525377
-0.462061	-0.0130952
-0.412072	-0.00910506
-0.472041	-0.0111151
-0.422045	-0.00708898
-0.482059	-0.00809695
-0.432056	-0.0121349
-0.49202	-0.012824
-0.442039	-0.0104427
-0.502031	-0.0122718
-0.452062	-0.00891537
-0.512011	-0.0110493
-0.462057	-0.00913975
-0.52198	-0.0100552
-0.472049	-0.00834597
-0.532006	-0.0115847
-0.482036	-0.00888844
-0.542036	-0.00616042
-0.492024	0.000286091
-0.552042	-0.00617579
-0.502031	-0.00200595
-0.562034	-0.00654773
-0.512042	5.25822e-05
-0.572014	-0.00190965
-0.522041	-0.00198967
-0.582021	-0.00689487
-0.532048	-0.00126921
-0.591971	-0.00574908
-0.542036	0.000242584
-0.602027	-0.00450974
-0.552058	0.000191014
-0.612049	-0.00229954
-0.562015	0.0011751
-0.621953	-0.00207683
-0.572037	0.00423049
-0.632013	-0.0013862
-0.582025	0.000546373
-0.642001	-0.00377879
-0.592036	-0.00249532
-0.651985	-0.00506422
-0.60205	-0.00514394
-0.661992	-0.00984134
-0.612045	-0.00327024
-0.672003	-0.00859013
-0.622003	-0.00324073
-0.682032	-0.00970808
-0.632006	-0.00231217
-0.692016	-0.0111758
-0.642001	-0.00171737
-0.701958	-0.0072516
-0.651981	-0.00303886
-0.712087	-0.0055641
-0.661942	0.000210638
-0.722159	-0.00467342
-0.671987	0.00331379
-0.732116	-0.00476682
-0.682017	-0.00186721
-0.742058	-0.00684376
-0.692001	0.00160302
-0.752103	-0.00326446
-0.70213	-0.000120077
-0.76208	-0.00890761
-0.712099	-0.00427699
-0.772151	-0.0114995
-0.722094	-0.00299611
-0.782078	-0.0121783
-0.732082	-0.000129661
-0.792108	-0.00948659
-0.742058	-0.00214879
-0.80213	-0.00802454
-0.752096	-0.00149801
-0.812041	-0.00755782
-0.762091	-0.00251662
-0.822102	-0.0119756
-0.772094	-0.00585146
-0.832089	-0.0127781
-0.782086	-0.00135653
-0.8421	-0.00877861
-0.792054	-0.00236541
-0.852057	-0.00779057
-0.802073	0.00571536
-0.862083	-0.0105712
-0.812072	0.00492553
-0.872064	-0.00668844
-0.822094	0.000337813
-0.882059	-0.0104984
-0.832063	-0.00236511
-0.892089	-0.00676922
-0.842058	-0.00162883
-0.902054	-0.0105677
-0.852126	-0.00357707
-0.912087	-0.00796703
-0.862091	-0.00346678
-0.922037	-0.00866908
-0.872102	-0.00391935
-0.932063	-0.015418
-0.882067	-0.00555056
-0.942096	-0.0157471
-0.892081	-0.0106229
-0.952099	-0.0163905
-0.902057	-0.00251982
-0.962026	-0.0135851
-0.912121	-0.00347089
-0.972075	-0.0134558
-0.922025	-0.0102712
-0.982074	-0.0146973
-0.932093	-0.00767161
-0.992008	-0.0133326
-0.942096	-0.00665482
-1.00207	-0.0130922
-0.952023	-0.00183329
-1.01211	-0.0147869
-0.962057	-0.00923315
-1.02202	-0.0153523
-0.972025	-0.00604024
-1.03204	-0.0124793
-0.982024	-0.00628805
-1.04205	-0.0140968
-0.9921	-0.00283958
-1.05206	-0.0144164
-1.0021	-0.00501494
-1.06204	-0.0119606
-1.01206	-0.00558388
-1.07203	-0.0159777
-1.02208	-0.00428003
-1.08204	-0.0156737
-1.03205	-0.00410448
-1.09199	-0.0148661
-1.04206	-0.00668159
-1.10205	-0.0141627
-1.05204	-0.0102869
-1.11203	-0.018429
-1.06201	-0.0113443
-1.12207	-0.0201469
-1.07203	-0.00518683