File: VFSWV_data_prep/Example_data/CoPc(OMe)8_VFSWV_txt_data/CoPc(OMe)8_CNT_VFSWV_scans_06_5_C02.txt
Ewe/V	<I>/mA
-0.12206	-1.32999
-0.0721407	2.70479
-0.132044	-3.07189
-0.0821094	2.39952
-0.142074	-3.1433
-0.0921124	2.36153
-0.152066	-3.16105
-0.102096	2.34682
-0.162107	-3.16506
-0.11208	2.34243
-0.172072	-3.18339
-0.122087	2.32353
-0.182063	-3.20324
-0.132075	2.32621
-0.192086	-3.22119
-0.142101	2.33346
-0.202089	-3.25345
-0.152058	2.3495
-0.212038	-3.28266
-0.162076	2.36191
-0.222053	-3.3155
-0.172049	2.37374
-0.232082	-3.35406
-0.182079	2.3852
-0.242078	-3.40504
-0.192078	2.4041
-0.252062	-3.44112
-0.202073	2.42281
-0.262	-3.48809
-0.212111	2.43904
-0.272098	-3.53066
-0.222072	2.45565
-0.282124	-3.57171
-0.232048	2.47474
-0.292139	-3.6013
-0.242105	2.48562
-0.302157	-3.63375
-0.252039	2.50547
-0.312176	-3.66125
-0.262031	2.50815
-0.32214	-3.69695
-0.272091	2.51407
-0.332113	-3.72749
-0.282132	2.51197
-0.342143	-3.74754
-0.29212	2.52075
-0.352153	-3.76949
-0.302115	2.51922
-0.362153	-3.79679
-0.312107	2.5343
-0.372098	-3.82505
-0.32214	2.53468
-0.382094	-3.85751
-0.332147	2.54079
-0.392166	-3.89321
-0.342124	2.55148
-0.402138	-3.93578
-0.35205	2.56638
-0.412114	-3.98045
-0.362103	2.57936
-0.422121	-4.03257
-0.372095	2.60017
-0.432136	-4.08622
-0.382086	2.6332
-0.442089	-4.15361
-0.39212	2.65152
-0.452146	-4.22292
-0.402085	2.67902
-0.462065	-4.29947
-0.412095	2.70517
-0.472083	-4.37164
-0.422125	2.73915
-0.482128	-4.46442
-0.432082	2.77715
-0.492097	-4.56771
-0.442104	2.82239
-0.502065	-4.68588
-0.452088	2.87088
-0.512107	-4.82525
-0.462095	2.93904
-0.522064	-5.00585
-0.472064	3.02228
-0.532078	-5.19849
-0.48209	3.10055
-0.542097	-5.42835
-0.492055	3.2004
-0.552115	-5.68074
-0.502062	3.29681
-0.562065	-5.95393
-0.512084	3.39284
-0.572045	-6.24489
-0.522079	3.47379
-0.582048	-6.54806
-0.532052	3.52877
-0.592058	-6.85868
-0.542043	3.57555
-0.602027	-7.15898
-0.552081	3.58739
-0.612023	-7.45967
-0.562053	3.58433
-0.622045	-7.74032
-0.572075	3.5471
-0.632044	-8.0139
-0.582094	3.49441
-0.642062	-8.25025
-0.592024	3.43045
-0.652046	-8.45128
-0.601997	3.36134
-0.662072	-8.63322
-0.612034	3.28479
-0.672083	-8.7976
-0.622041	3.21892
-0.682013	-8.89592
-0.632059	3.16833
-0.692051	-8.95129
-0.642085	3.12289
-0.702023	-8.95969
-0.652069	3.09082
-0.712187	-8.94518
-0.662061	3.08891
-0.722113	-8.85984
-0.672033	3.07917
-0.732128	-8.73536
-0.682025	3.08356
-0.742077	-8.5834
-0.692016	3.0954
-0.752103	-8.40432
-0.702176	3.09654
-0.762114	-8.19909
-0.712141	3.10437
-0.772106	-7.98583
-0.722113	3.10895
-0.782135	-7.77487
-0.732132	3.10571
-0.792116	-7.57174
-0.742127	3.08356
-0.80213	-7.38617
-0.752103	3.06084
-0.812122	-7.2092
-0.762125	3.02591
-0.822113	-7.07078
-0.772163	2.98505
-0.832131	-6.94402
-0.782074	2.94992
-0.842119	-6.84321
-0.792104	2.91632
-0.852115	-6.74756
-0.802138	2.88406
-0.862129	-6.68036
-0.812099	2.85504
-0.87209	-6.61679
-0.822106	2.82869
-0.882047	-6.56887
-0.832097	2.81208
-0.892039	-6.53603
-0.842051	2.79089
-0.902099	-6.51579
-0.85213	2.77104
-0.912064	-6.49823
-0.862129	2.74622
-0.922086	-6.50014
-0.872102	2.72693
-0.932112	-6.49021
-0.882139	2.72331
-0.942104	-6.49842
-0.89207	2.70135
-0.952134	-6.51064
-0.902046	2.67501
-0.962057	-6.51809
-0.912118	2.66241
-0.972033	-6.53546
-0.922052	2.65859
-0.982066	-6.55512
-0.932101	2.64809
-0.992039	-6.56963
-0.942119	2.64503
-1.00202	-6.57784
-0.952038	2.64293
-1.01201	-6.60075
-0.962076	2.64732
-1.02206	-6.60934
-0.972021	2.6584
-1.03209	-6.60686
-0.982074	2.66508
-1.04204	-6.61087
-0.9921	2.67042
-1.05205	-6.60705
-1.00205	2.68627
-1.06201	-6.60591
-1.01205	2.67844
-1.07203	-6.60342
-1.02203	2.68665
-1.08205	-6.60094
-1.03202	2.69085
-1.09205	-6.60495
-1.04207	2.68627
-1.1021	-6.61316
-1.05204	2.68551
-1.11198	-6.61202
-1.06208	2.67653
-1.12211	-6.63359
-1.07201	2.6752