File: VFSWV_data_prep/Example_data/CoPc(OMe)8_VFSWV_txt_data/CoPc(OMe)8_CNT_VFSWV_scans_32_31_C02.txt
Ewe/V	<I>/mA
-0.122167	-0.0302482
-0.0721483	0.0457993
-0.132079	-0.0517578
-0.0820789	0.0441448
-0.142082	-0.058758
-0.0920819	0.0362536
-0.152062	-0.0642309
-0.102085	0.0367627
-0.162103	-0.0641672
-0.112099	0.0330081
-0.172045	-0.0600308
-0.122041	0.0339627
-0.18209	-0.0658855
-0.132125	0.0348536
-0.192036	-0.0727584
-0.14207	0.0326263
-0.202077	-0.072822
-0.1521	0.0312262
-0.212061	-0.0770858
-0.162092	0.0352354
-0.222041	-0.0791858
-0.172144	0.0366991
-0.232079	-0.0845951
-0.182075	0.03619
-0.242116	-0.0887315
-0.192093	0.0339627
-0.252047	-0.0906407
-0.202031	0.0404537
-0.262027	-0.0942044
-0.21205	0.0270261
-0.272018	-0.101714
-0.222026	0.0333263
-0.282163	-0.101714
-0.232052	0.0424902
-0.292143	-0.114378
-0.242055	0.0394355
-0.302153	-0.110432
-0.252062	0.0366991
-0.31216	-0.108968
-0.262042	0.043572
-0.322205	-0.123287
-0.272087	0.0426811
-0.332121	-0.115396
-0.28214	0.0372082
-0.342139	-0.122651
-0.29212	0.0395628
-0.352146	-0.128251
-0.302188	0.0403901
-0.36216	-0.130287
-0.312149	0.0399446
-0.372133	-0.134296
-0.322098	0.0450993
-0.382109	-0.138497
-0.332143	0.0480267
-0.392101	-0.142697
-0.342127	0.0450357
-0.402069	-0.146515
-0.35218	0.0429356
-0.412099	-0.149251
-0.36216	0.0440811
-0.422133	-0.152688
-0.372117	0.03829
-0.432136	-0.159306
-0.382094	0.0482176
-0.442112	-0.16217
-0.392112	0.0457993
-0.452142	-0.17687
-0.402142	0.0494267
-0.462099	-0.180943
-0.412091	0.0512722
-0.47211	-0.184634
-0.422133	0.0564905
-0.482109	-0.196534
-0.432124	0.0540723
-0.492097	-0.206271
-0.442074	0.0618361
-0.502138	-0.221799
-0.452107	0.0608179
-0.512126	-0.236117
-0.46213	0.0686454
-0.522075	-0.252791
-0.472068	0.0738637
-0.532067	-0.289128
-0.48214	0.0796548
-0.542093	-0.328838
-0.492039	0.0969644
-0.552062	-0.382739
-0.502111	0.110074
-0.562126	-0.454778
-0.512103	0.143166
-0.572087	-0.547626
-0.522114	0.17823
-0.582113	-0.657401
-0.532063	0.235314
-0.592089	-0.780477
-0.542039	0.315752
-0.602081	-0.913926
-0.552035	0.404973
-0.612068	-1.05673
-0.562107	0.508575
-0.622056	-1.19107
-0.572026	0.634133
-0.632051	-1.31186
-0.582063	0.755555
-0.642051	-1.41826
-0.592058	0.86673
-0.652	-1.50156
-0.602077	0.958624
-0.662026	-1.55527
-0.612045	1.02646
-0.672071	-1.56832
-0.622075	1.07082
-0.682048	-1.5533
-0.632055	1.0873
-0.692043	-1.51079
-0.642032	1.08011
-0.702031	-1.43404
-0.652035	1.05077
-0.712175	-1.34355
-0.661984	0.994198
-0.722121	-1.2388
-0.672067	0.920123
-0.732177	-1.13144
-0.68204	0.850312
-0.742116	-1.02828
-0.692032	0.765355
-0.752096	-0.9285
-0.7021	0.67518
-0.76208	-0.853216
-0.712106	0.59996
-0.772144	-0.786268
-0.722132	0.526521
-0.782063	-0.726194
-0.732177	0.453719
-0.792108	-0.685657
-0.742081	0.410064
-0.802077	-0.648683
-0.752115	0.368699
-0.812137	-0.618709
-0.762148	0.327461
-0.822155	-0.595418
-0.772144	0.301879
-0.832089	-0.583263
-0.782132	0.27706
-0.842127	-0.566653
-0.792131	0.257014
-0.852195	-0.565253
-0.802107	0.228822
-0.862083	-0.559717
-0.812064	0.217686
-0.872086	-0.563853
-0.822094	0.210049
-0.882128	-0.556726
-0.83212	0.207313
-0.892077	-0.553099
-0.842115	0.20674
-0.902138	-0.561562
-0.852122	0.204194
-0.912087	-0.565062
-0.862095	0.190703
-0.922128	-0.570599
-0.872102	0.189558
-0.93207	-0.577217
-0.882093	0.189367
-0.942058	-0.570472
-0.892104	0.18714
-0.952095	-0.576008
-0.902076	0.19204
-0.962118	-0.572508
-0.912144	0.189049
-0.972067	-0.572126
-0.922125	0.190385
-0.982066	-0.577854
-0.932093	0.191276
-0.9921	-0.565953
-0.942104	0.193885
-1.00204	-0.574354
-0.952015	0.191785
-1.01208	-0.57079
-0.962125	0.192421
-1.02208	-0.574608
-0.972082	0.188667
-1.03204	-0.575372
-0.982078	0.191785
-1.04206	-0.578172
-0.992134	0.185676
-1.05206	-0.575945
-1.00207	0.193249
-1.06206	-0.578172
-1.01206	0.192803
-1.07204	-0.58269
-1.02206	0.183258
-1.08208	-0.584918
-1.03201	0.192103
-1.09206	-0.590836
-1.04205	0.186185
-1.10209	-0.599618
-1.05203	0.184658
-1.11203	-0.605473
-1.06203	0.184021
-1.12214	-0.621382
-1.07206	0.183321