File: VFSWV_data_prep/Example_data/CoPc(OMe)8_VFSWV_txt_data/CoPc(OMe)8_CNT_VFSWV_scans_69_68_C02.txt
Ewe/V	<I>/mA
-0.122072	-0.00793372
-0.0721102	0.00911021
-0.132075	-0.00278375
-0.0821094	0.00758289
-0.142051	-0.0038533
-0.0920934	0.00682782
-0.152054	-0.003429
-0.102085	0.0130915
-0.162073	-0.00276101
-0.112057	0.00577243
-0.172087	-0.00524333
-0.122072	0.00432663
-0.182075	-0.00701905
-0.132029	0.0109421
-0.19207	-0.00410943
-0.142089	0.00479855
-0.202073	-0.00662006
-0.152062	0.00338278
-0.212042	-0.00732665
-0.162065	0.00243894
-0.222041	-0.00952109
-0.17208	0.00577672
-0.232052	-0.00777713
-0.182002	0.00610277
-0.242055	-0.00570453
-0.192074	0.00439956
-0.25202	-0.00600312
-0.202028	0.00627867
-0.262065	-0.00944087
-0.21208	0.00173534
-0.272037	-0.00883509
-0.222022	0.00787463
-0.28217	-0.010534
-0.23206	0.0053477
-0.292131	-0.0071692
-0.242013	0.00607703
-0.302108	-0.00779943
-0.252047	0.0060041
-0.312137	-0.00785135
-0.262015	0.00487577
-0.322152	-0.00421282
-0.271976	0.00645457
-0.332128	-0.00711214
-0.282128	0.0117272
-0.342139	-0.00702119
-0.292097	0.0107491
-0.352146	-0.00384215
-0.302146	0.00471275
-0.362137	-0.006566
-0.312103	0.00606416
-0.372129	-0.00783933
-0.322072	0.00470416
-0.382059	-0.00878232
-0.332109	0.0074928
-0.392127	-0.00871883
-0.342116	0.00430947
-0.402115	-0.0117469
-0.352089	0.00545495
-0.412065	-0.00643987
-0.36213	0.00534341
-0.422052	-0.0089831
-0.372068	0.00733835
-0.432105	-0.00911353
-0.382151	0.00700372
-0.442074	-0.00365338
-0.392108	0.00594403
-0.452142	-0.00643043
-0.402138	0.00595691
-0.462122	-0.00858454
-0.412095	0.00430518
-0.472075	-0.00895565
-0.422125	0.00550214
-0.482048	-0.0106996
-0.432048	0.00520183
-0.492097	-0.00765271
-0.442112	0.00837229
-0.502054	-0.0071426
-0.452096	0.00835942
-0.512026	-0.00795045
-0.462088	0.00852245
-0.522041	-0.00763855
-0.472102	0.00802049
-0.532036	-0.00852748
-0.482052	0.00422366
-0.542089	-0.0087184
-0.492066	0.00413357
-0.552069	-0.00861114
-0.502081	0.00560511
-0.562026	-0.00937566
-0.51208	0.0077116
-0.57201	-0.00623437
-0.522083	0.0115985
-0.582067	-0.000935531
-0.53209	0.00572952
-0.592016	-0.00712544
-0.54207	0.0154254
-0.602035	-0.00246499
-0.55205	0.0101441
-0.612042	-0.0065823
-0.562034	0.0107233
-0.62206	-0.00756733
-0.572049	0.0135506
-0.632029	-0.00545226
-0.582044	0.0171157
-0.642016	-0.00400989
-0.592081	0.0119246
-0.652016	-0.00784963
-0.60205	0.00938478
-0.66203	-0.0102264
-0.612076	0.00962503
-0.672064	-0.0107931
-0.621991	0.00878415
-0.682074	-0.0157303
-0.632063	0.0112811
-0.69202	-0.0170839
-0.642066	0.0116243
-0.702027	-0.0177523
-0.652069	0.0107105
-0.712175	-0.0150503
-0.662053	0.00940623
-0.722171	-0.0141146
-0.672083	0.0133961
-0.732086	-0.0126324
-0.682059	0.0105474
-0.74207	-0.0175107
-0.69202	0.0126196
-0.7521	-0.00822073
-0.702187	0.0135634
-0.762099	-0.0165729
-0.712076	0.0063988
-0.772064	-0.0188579
-0.722079	0.00527905
-0.782093	-0.0187781
-0.732112	0.00309105
-0.792058	-0.0217786
-0.7421	0.00406063
-0.802103	-0.0191908
-0.752157	0.00298808
-0.812114	-0.0191921
-0.762114	0.00478997
-0.822128	-0.0192268
-0.772113	0.00781027
-0.832093	-0.0178209
-0.782109	0.006047
-0.842135	-0.0179707
-0.792123	0.00688788
-0.852168	-0.0178102
-0.802161	0.00566946
-0.862106	-0.0161336
-0.81211	0.00753999
-0.872113	-0.017878
-0.822102	0.00611135
-0.882078	-0.0174854
-0.832109	0.00949204
-0.892104	-0.0178154
-0.842127	0.00782744
-0.902103	-0.0155042
-0.852092	0.00874554
-0.912068	-0.0108721
-0.862099	0.00668195
-0.922044	-0.0174061
-0.872125	0.00608132
-0.932116	-0.0199669
-0.882105	0.00739841
-0.942081	-0.015711
-0.892131	0.00986099
-0.952099	-0.0134552
-0.902084	0.0141297
-0.962095	-0.0104662
-0.91206	0.0144086
-0.972037	-0.011891
-0.922102	0.0108435
-0.982066	-0.0133677
-0.932116	0.0132545
-0.992131	-0.00527679
-0.942127	0.0150908
-1.0021	-0.0139928
-0.952073	0.0120876
-1.01211	-0.0131588
-0.962098	0.00973229
-1.02206	-0.0152567
-0.972086	0.00530479
-1.03202	-0.0128194
-0.98212	0.00808914
-1.04205	-0.01805
-0.992062	0.00683211
-1.05199	-0.0185305
-1.00211	0.00815349
-1.06207	-0.017437
-1.01208	0.00739841
-1.07206	-0.0170916
-1.02211	0.00511602
-1.08206	-0.022354
-1.0321	0.00493584
-1.09207	-0.0230447
-1.04206	0.00564372
-1.10204	-0.0218469
-1.05207	0.00373458
-1.11204	-0.0245977
-1.06205	0.00615855
-1.12218	-0.0158341
-1.07208	0.00684498