File: VFSWV_data_prep/Example_data/CoPc(OMe)8_VFSWV_txt_data/CoPc(OMe)8_CNT_VFSWV_scans_62_61_C02.txt
Ewe/V	<I>/mA
-0.122068	0.00106178
-0.072072	0.00362282
-0.132048	-0.0104862
-0.0820635	-0.00432107
-0.142074	-0.0124885
-0.092101	-0.00406962
-0.152031	-0.00554106
-0.102089	0.0049825
-0.162034	-0.0102441
-0.112012	-0.00144339
-0.172068	-0.0126934
-0.122057	-0.000744921
-0.182037	-0.0142207
-0.132052	-0.00371573
-0.192002	-0.00928484
-0.142097	-0.00555968
-0.202008	-0.0153662
-0.152089	-0.00348291
-0.212027	-0.0144069
-0.16205	0.00400465
-0.222079	-0.015599
-0.172011	-0.00490778
-0.232018	-0.00998331
-0.182014	-0.00136888
-0.242051	-0.0166327
-0.191952	-0.00266338
-0.252001	-0.0157759
-0.202043	0.00061476
-0.261981	-0.0135874
-0.21205	-0.00684486
-0.272003	-0.0163719
-0.222034	-0.0061464
-0.282098	-0.0142486
-0.231979	-0.000726295
-0.292124	-0.0128051
-0.242047	-0.000595915
-0.30213	-0.0158877
-0.252031	-0.00150858
-0.312118	-0.0144349
-0.262046	0.00366007
-0.322114	-0.018039
-0.272026	-0.00328734
-0.332044	-0.0147981
-0.282144	0.000558883
-0.342131	-0.0104955
-0.292143	-0.000521412
-0.352092	-0.0108401
-0.302146	0.00149017
-0.362114	-0.010868
-0.312115	0.0011456
-0.372079	-0.014379
-0.322076	-0.00127576
-0.382124	-0.0146304
-0.332132	-0.00128507
-0.392112	-0.0132335
-0.342032	-0.000763547
-0.402054	-0.0141369
-0.352054	-0.00109881
-0.412076	-0.0167165
-0.362095	-0.000344467
-0.42206	-0.015599
-0.372079	-0.000111645
-0.432044	-0.0199015
-0.382067	-0.00106156
-0.442112	-0.0172939
-0.39215	-0.00319421
-0.452058	-0.0177596
-0.402153	-0.00342703
-0.462091	-0.0185605
-0.412088	-0.00320352
-0.472087	-0.0189237
-0.422041	-0.00314765
-0.482067	-0.0218386
-0.432056	-0.00485191
-0.492028	-0.0219876
-0.442032	-0.0035481
-0.502042	-0.0202275
-0.452081	-0.00202079
-0.512	-0.021522
-0.462122	-0.00348291
-0.521984	-0.0197246
-0.472064	-0.00515923
-0.532078	-0.0177875
-0.482063	-0.00379955
-0.542028	-0.0216803
-0.492093	-0.000716982
-0.552042	-0.0191472
-0.502073	0.000530945
-0.562023	-0.0209353
-0.512019	-0.00343635
-0.572041	-0.0219969
-0.522079	-0.000251338
-0.581998	-0.0267186
-0.532078	-0.00230017
-0.591978	-0.0242693
-0.54202	0.00633287
-0.602019	-0.0275567
-0.552039	0.00163918
-0.612019	-0.0315799
-0.562007	-0.00128507
-0.622045	-0.0278641
-0.572029	0.00495457
-0.632021	-0.0258711
-0.582006	0.0037532
-0.642032	-0.0284601
-0.591986	0.00881941
-0.652	-0.0280782
-0.601996	0.00406984
-0.662042	-0.0270538
-0.612026	0.00784156
-0.671987	-0.0317475
-0.622033	0.00440511
-0.682055	-0.0228258
-0.632055	0.0130568
-0.692024	-0.0296894
-0.642024	0.0153943
-0.701977	-0.0271376
-0.652	0.0125725
-0.712137	-0.0261598
-0.662022	0.0119392
-0.722087	-0.029559
-0.671999	0.011306
-0.73212	-0.0296521
-0.682044	0.0124235
-0.742081	-0.0360873
-0.69199	0.0115853
-0.752084	-0.031226
-0.702099	0.0112221
-0.762057	-0.0322132
-0.712103	0.00640738
-0.772064	-0.0351002
-0.722075	0.00745973
-0.78204	-0.0320269
-0.732139	0.0111383
-0.79207	-0.0278082
-0.742085	0.0133082
-0.802069	-0.0308442
-0.752046	0.00722691
-0.812099	-0.0317568
-0.762103	0.0121255
-0.822106	-0.0303972
-0.77206	0.0121255
-0.832101	-0.0285439
-0.782093	0.00997421
-0.842127	-0.0302761
-0.792043	0.00914537
-0.852115	-0.0286463
-0.802115	0.0127867
-0.862102	-0.0336567
-0.812102	0.00563441
-0.872075	-0.0282924
-0.822148	0.00439579
-0.882047	-0.0338429
-0.832166	0.00534571
-0.892066	-0.0321107
-0.842039	0.00593242
-0.90208	-0.0346252
-0.852111	0.0070779
-0.912091	-0.0267279
-0.862045	0.00791606
-0.922098	-0.0302854
-0.872117	0.00881941
-0.932078	-0.0325857
-0.882063	0.0109614
-0.942058	-0.0287767
-0.892054	0.0114829
-0.952042	-0.0318407
-0.902084	0.00553197
-0.962053	-0.0318779
-0.912015	0.00810232
-0.972006	-0.0329023
-0.922056	0.00874491
-0.98207	-0.0311049
-0.932063	0.0120882
-0.992047	-0.028935
-0.942039	0.00734798
-1.00204	-0.0335729
-0.952034	0.00666814
-1.01203	-0.0279572
-0.962026	0.0110079
-1.02204	-0.0302016
-0.972048	0.013392
-1.03199	-0.0336567
-0.982028	0.00595105
-1.04204	-0.0361432
-0.992089	0.00672402
-1.05206	-0.036078
-1.00202	0.0041816
-1.06202	-0.0399429
-1.01208	0.0034645
-1.072	-0.0405668
-1.02208	0.00776706
-1.08205	-0.0412001
-1.03204	0.00278466
-1.09204	-0.0415447
-1.04206	0.00465655
-1.10204	-0.042029
-1.05201	0.00324099
-1.11201	-0.0467878
-1.06205	0.00526189
-1.12209	-0.0496935
-1.07208	0.00228177