File: VFSWV_data_prep/Example_data/CoPc(OMe)8_VFSWV_txt_data/CoPc(OMe)8_CNT_VFSWV_scans_66_65_C02.txt
Ewe/V	<I>/mA
-0.122045	0.0170986
-0.0720911	0.0289727
-0.132056	0.0198986
-0.0821055	0.0249148
-0.142086	0.0192323
-0.0921124	0.0277074
-0.152035	0.0178473
-0.102051	0.0257608
-0.162118	0.0177125
-0.112084	0.0333375
-0.172007	0.0188505
-0.122102	0.0238367
-0.18206	0.0175553
-0.132048	0.0210366
-0.192051	0.015429
-0.142032	0.0220848
-0.202081	0.0149798
-0.152051	0.0255961
-0.212061	0.0156686
-0.162027	0.0239715
-0.222034	0.0147103
-0.17208	0.0246902
-0.232052	0.0129059
-0.182067	0.029931
-0.242017	0.0120824
-0.192021	0.0237319
-0.252016	0.0107123
-0.202039	0.0241512
-0.26205	0.0086684
-0.212057	0.0186858
-0.272026	0.00688653
-0.222022	0.021411
-0.282147	0.0110866
-0.232021	0.0186708
-0.292135	0.010046
-0.242055	0.023672
-0.302157	0.00999357
-0.252005	0.0239041
-0.31208	0.012015
-0.262073	0.0207222
-0.322114	0.0124043
-0.272068	0.021426
-0.332079	0.0108096
-0.282121	0.0243009
-0.342097	0.0134525
-0.292116	0.0254239
-0.352066	0.0142835
-0.302108	0.024241
-0.362111	0.0133851
-0.312099	0.0240688
-0.372098	0.0124867
-0.32214	0.019674
-0.382094	0.00666193
-0.332109	0.0211939
-0.392078	0.014276
-0.34207	0.0250945
-0.402081	0.0134824
-0.352073	0.0250047
-0.412	0.00461802
-0.362099	0.0170162
-0.422072	0.00493996
-0.372087	0.0140814
-0.432056	0.00653465
-0.382105	0.0167018
-0.442097	0.00119654
-0.392085	0.0145156
-0.45205	0.00577848
-0.402111	0.0174804
-0.462114	0.0037795
-0.412088	0.0160504
-0.47206	0.00496991
-0.422094	0.0174729
-0.482056	0.0027014
-0.432067	0.0176152
-0.492032	0.00301584
-0.442078	0.0166943
-0.502065	0.00288108
-0.452081	0.0135423
-0.512076	0.0038918
-0.462076	0.0196666
-0.522068	0.00447577
-0.472091	0.0101583
-0.532094	-0.00860372
-0.482063	0.00887054
-0.542055	-0.00617799
-0.492024	0.0116407
-0.552065	-0.00549669
-0.502062	0.0102631
-0.562003	-0.00305598
-0.512103	0.0148076
-0.572079	-0.00818446
-0.522064	0.0104652
-0.582013	-0.0106327
-0.532086	0.0113936
-0.592043	-0.00835666
-0.542058	0.014568
-0.602035	-0.00589349
-0.552084	0.0113262
-0.612034	-0.0102059
-0.56203	0.0125241
-0.622022	-0.00976418
-0.572003	0.0113412
-0.632029	-0.0138295
-0.582059	0.0138643
-0.642032	-0.0113214
-0.592058	0.0130407
-0.652008	-0.00773525
-0.60205	0.0105476
-0.662042	-0.0160756
-0.612038	0.0104503
-0.671987	-0.0200586
-0.622041	0.010293
-0.682025	-0.0171687
-0.632059	0.0106
-0.691997	-0.0186511
-0.642001	0.016582
-0.702054	-0.0176179
-0.651993	0.0128835
-0.712129	-0.017251
-0.662053	0.0145531
-0.722083	-0.0167269
-0.672014	0.01486
-0.732059	-0.0182318
-0.681964	0.0139915
-0.742096	-0.0185837
-0.691978	0.0174205
-0.752092	-0.0179698
-0.702119	0.0142985
-0.762083	-0.0204554
-0.712133	0.0215458
-0.772094	-0.0134252
-0.722067	0.0185435
-0.782112	-0.01639
-0.732059	0.0151146
-0.792077	-0.0198415
-0.742112	0.0144707
-0.802046	-0.0191676
-0.752077	0.0147926
-0.812057	-0.0212265
-0.762076	0.0122771
-0.822041	-0.0214212
-0.772102	0.0144932
-0.832116	-0.0210543
-0.782067	0.0147926
-0.842112	-0.0189206
-0.792077	0.0123369
-0.852118	-0.0247678
-0.80208	0.0121049
-0.862041	-0.0218255
-0.812095	0.011431
-0.872056	-0.025479
-0.822113	0.00681915
-0.882047	-0.0250373
-0.832082	0.0124567
-0.892043	-0.0236972
-0.842119	0.00925986
-0.90208	-0.0190104
-0.852107	0.0112364
-0.912079	-0.0244309
-0.862087	0.00834647
-0.922102	-0.0230009
-0.872079	0.00947698
-0.932063	-0.0251122
-0.882063	0.0100535
-0.942047	-0.0196842
-0.892054	0.00751543
-0.952023	-0.0223945
-0.902061	0.00922991
-0.962022	-0.0261154
-0.912057	0.0107647
-0.972048	-0.0253293
-0.922079	0.0133851
-0.982032	-0.0265946
-0.932093	0.0049175
-0.99205	-0.0303904
-0.942073	0.0110866
-1.00201	-0.0283764
-0.952076	0.0079871
-1.012	-0.0278673
-0.962022	0.00613785
-1.02213	-0.0286535
-0.972029	0.00577848
-1.03201	-0.0258833
-0.982024	0.00621272
-1.04195	-0.0303455
-0.992039	0.00205004
-1.05202	-0.0299187
-1.00207	0.00269391
-1.06203	-0.0337894
-1.01201	0.00158586
-1.07204	-0.0304353
-1.02203	0.00619775
-1.08204	-0.029477
-1.03206	0.00678921
-1.09202	-0.0322921
-1.04206	0.00443085
-1.10203	-0.0347702
-1.05208	0.00634748
-1.11202	-0.0356012
-1.06203	0.00570361
-1.12206	-0.0370387
-1.072	0.00575602