File: VFSWV_data_prep/Example_data/CoPc(OMe)8_VFSWV_txt_data/CoPc(OMe)8_CNT_VFSWV_scans_35_34_C02.txt
Ewe/V	<I>/mA
-0.122068	-0.0142114
-0.0720606	0.0464994
-0.132037	-0.0340028
-0.0821017	0.0429993
-0.142105	-0.0430394
-0.0920399	0.0385446
-0.152062	-0.0408757
-0.102074	0.0374628
-0.162054	-0.0452667
-0.112073	0.0372718
-0.172083	-0.0434849
-0.12211	0.0346627
-0.182041	-0.0477486
-0.132064	0.0417901
-0.192013	-0.0464122
-0.142112	0.0319899
-0.20207	-0.0532215
-0.152012	0.0348536
-0.21205	-0.0581853
-0.162084	0.039181
-0.222057	-0.0598399
-0.172057	0.0359354
-0.232021	-0.0606035
-0.182079	0.0372718
-0.242097	-0.0586944
-0.192025	0.0380355
-0.252028	-0.0730766
-0.202047	0.0396901
-0.262004	-0.076513
-0.212069	0.0358082
-0.271992	-0.0800131
-0.222045	0.0347263
-0.282124	-0.0842132
-0.23196	0.0339627
-0.292162	-0.0777222
-0.242013	0.0400083
-0.302153	-0.0814132
-0.252001	0.0362536
-0.312099	-0.0827496
-0.262004	0.0369537
-0.322148	-0.0900043
-0.271984	0.0429356
-0.332113	-0.0926771
-0.28209	0.0424902
-0.342078	-0.0957954
-0.292139	0.0400719
-0.352134	-0.0989773
-0.30213	0.0330717
-0.362149	-0.100505
-0.312107	0.0360627
-0.37206	-0.104132
-0.322186	0.0408992
-0.38214	-0.104068
-0.332105	0.0406447
-0.392108	-0.10865
-0.342146	0.0365082
-0.402073	-0.11476
-0.352069	0.0379082
-0.412114	-0.117496
-0.362114	0.0432538
-0.42214	-0.11355
-0.372079	0.0448448
-0.432056	-0.114696
-0.382086	0.0464994
-0.442066	-0.124114
-0.392074	0.0439538
-0.452058	-0.124242
-0.4021	0.0440811
-0.46208	-0.131178
-0.412107	0.0429356
-0.472056	-0.138878
-0.422075	0.051654
-0.482052	-0.145306
-0.432052	0.0552178
-0.492005	-0.155042
-0.442047	0.0506358
-0.502062	-0.163888
-0.452058	0.0564269
-0.512	-0.173116
-0.462049	0.0573815
-0.522075	-0.186543
-0.472079	0.0616452
-0.532094	-0.208562
-0.482159	0.0633634
-0.542051	-0.235417
-0.492062	0.0767911
-0.552073	-0.267555
-0.502084	0.0848095
-0.562026	-0.323938
-0.512049	0.0958825
-0.572033	-0.390312
-0.522037	0.124901
-0.582029	-0.469542
-0.532029	0.158566
-0.592051	-0.55959
-0.542081	0.211131
-0.60205	-0.66262
-0.552054	0.259687
-0.61203	-0.765968
-0.562046	0.344453
-0.622037	-0.873898
-0.572098	0.436155
-0.632048	-0.968337
-0.582002	0.527858
-0.642016	-1.06188
-0.592036	0.61816
-0.652035	-1.11999
-0.602027	0.70019
-0.662038	-1.15779
-0.612087	0.760137
-0.672045	-1.16714
-0.62198	0.796283
-0.682021	-1.1478
-0.63204	0.812129
-0.691993	-1.10987
-0.642062	0.810093
-0.701974	-1.04648
-0.651996	0.787756
-0.712076	-0.975019
-0.661973	0.742127
-0.722109	-0.892671
-0.672022	0.680844
-0.732128	-0.812551
-0.681994	0.624715
-0.742039	-0.744013
-0.69202	0.559231
-0.752157	-0.674138
-0.702069	0.489484
-0.762083	-0.619982
-0.712118	0.430301
-0.772106	-0.576517
-0.722109	0.379199
-0.782055	-0.544189
-0.732151	0.331152
-0.792104	-0.518479
-0.742073	0.288897
-0.802126	-0.48736
-0.752126	0.254659
-0.812099	-0.469414
-0.762106	0.233532
-0.822083	-0.45796
-0.772071	0.207631
-0.832089	-0.453569
-0.782101	0.188476
-0.842089	-0.441032
-0.792093	0.177976
-0.852073	-0.440268
-0.802061	0.165757
-0.862095	-0.431168
-0.812087	0.162512
-0.872136	-0.43435
-0.822098	0.151948
-0.882089	-0.435368
-0.832059	0.148702
-0.892066	-0.442814
-0.84207	0.141193
-0.902057	-0.440332
-0.852069	0.143866
-0.912083	-0.439696
-0.862087	0.142784
-0.922041	-0.442877
-0.87206	0.140175
-0.932066	-0.443896
-0.882105	0.143929
-0.942092	-0.445168
-0.89207	0.142911
-0.952004	-0.44415
-0.902118	0.141447
-0.962003	-0.444532
-0.912079	0.14202
-0.972018	-0.438423
-0.922067	0.143547
-0.982066	-0.439823
-0.932032	0.14622
-0.992069	-0.446505
-0.942047	0.141002
-1.00205	-0.436768
-0.952004	0.142975
-1.01204	-0.440205
-0.962064	0.142656
-1.02206	-0.443196
-0.97204	0.142275
-1.03204	-0.449687
-0.982078	0.143802
-1.04201	-0.444087
-0.99202	0.134193
-1.05206	-0.443959
-1.00206	0.142147
-1.06201	-0.448541
-1.01201	0.141956
-1.07201	-0.451723
-1.022	0.144566
-1.08202	-0.452105
-1.03202	0.138265
-1.09199	-0.461205
-1.04199	0.143484
-1.10206	-0.470369
-1.05205	0.128402
-1.11203	-0.475778
-1.06204	0.132411
-1.12214	-0.481951
-1.07203	0.136738