File: VFSWV_data_prep/Example_data/CoPc(OMe)8_VFSWV_txt_data/CoPc(OMe)8_CNT_VFSWV_scans_17_16_C02.txt
Ewe/V	<I>/mA
-0.122072	-0.146706
-0.0721178	0.327907
-0.132128	-0.374021
-0.0821132	0.299524
-0.142151	-0.387512
-0.0921201	0.296852
-0.152066	-0.393367
-0.102154	0.278015
-0.162061	-0.406095
-0.112077	0.278269
-0.172064	-0.404949
-0.122102	0.283997
-0.182086	-0.414495
-0.132102	0.284378
-0.192063	-0.417422
-0.142101	0.284506
-0.20207	-0.437532
-0.152085	0.288069
-0.212034	-0.446568
-0.162084	0.291124
-0.222011	-0.455987
-0.172068	0.295706
-0.23206	-0.474824
-0.182037	0.307034
-0.242067	-0.485769
-0.192055	0.31327
-0.252054	-0.504734
-0.202066	0.32307
-0.262046	-0.528662
-0.21213	0.326889
-0.27206	-0.543044
-0.222072	0.339998
-0.282189	-0.551953
-0.23206	0.350944
-0.292154	-0.564044
-0.24207	0.354635
-0.302123	-0.582754
-0.252054	0.354762
-0.312179	-0.600191
-0.26208	0.35718
-0.322194	-0.613555
-0.272064	0.381872
-0.332098	-0.62501
-0.282178	0.383272
-0.342127	-0.637101
-0.292139	0.388109
-0.352192	-0.646901
-0.302165	0.391672
-0.362191	-0.66752
-0.312172	0.393581
-0.372163	-0.685211
-0.322163	0.407582
-0.382117	-0.696793
-0.332136	0.411145
-0.392131	-0.708375
-0.342143	0.408345
-0.402138	-0.73574
-0.352134	0.422473
-0.412111	-0.749867
-0.362111	0.431637
-0.42211	-0.778123
-0.372148	0.444746
-0.432128	-0.803196
-0.382079	0.461038
-0.442127	-0.834633
-0.392104	0.473765
-0.452134	-0.883762
-0.402172	0.484202
-0.462068	-0.919399
-0.412103	0.501257
-0.472133	-0.969928
-0.422129	0.530021
-0.482117	-1.02466
-0.43209	0.56044
-0.492081	-1.08486
-0.44212	0.591623
-0.502092	-1.16542
-0.452104	0.628406
-0.512137	-1.26559
-0.462072	0.679189
-0.522079	-1.39325
-0.472068	0.745755
-0.532128	-1.54916
-0.482048	0.830393
-0.542108	-1.73549
-0.492089	0.937432
-0.552062	-1.94843
-0.502111	1.07845
-0.562103	-2.19814
-0.512095	1.23933
-0.572102	-2.47051
-0.522048	1.43852
-0.582063	-2.75459
-0.532105	1.65094
-0.592066	-3.06871
-0.542097	1.89009
-0.6021	-3.36476
-0.552096	2.10888
-0.612064	-3.6426
-0.562057	2.31112
-0.622041	-3.90873
-0.572079	2.48486
-0.632051	-4.14776
-0.58201	2.6339
-0.642062	-4.34351
-0.592062	2.74437
-0.652077	-4.49535
-0.602054	2.8215
-0.662022	-4.61461
-0.612076	2.88247
-0.672083	-4.6757
-0.622094	2.89532
-0.682051	-4.6981
-0.63204	2.90614
-0.692058	-4.66285
-0.642058	2.86948
-0.702046	-4.58432
-0.652054	2.82926
-0.712144	-4.48275
-0.662026	2.76143
-0.722129	-4.32264
-0.672003	2.69295
-0.732113	-4.14038
-0.682036	2.58477
-0.742108	-3.94068
-0.692024	2.47747
-0.752088	-3.72978
-0.702168	2.33518
-0.76208	-3.51443
-0.712141	2.21554
-0.772075	-3.30837
-0.722148	2.08406
-0.782059	-3.1242
-0.732124	1.94788
-0.792073	-2.95645
-0.742138	1.82569
-0.802061	-2.80894
-0.7521	1.7086
-0.81216	-2.68039
-0.762137	1.59469
-0.822132	-2.57883
-0.772098	1.50534
-0.832093	-2.50157
-0.78212	1.42477
-0.842115	-2.42457
-0.792058	1.3647
-0.852111	-2.3678
-0.802046	1.3087
-0.862148	-2.32987
-0.812091	1.26211
-0.872113	-2.29296
-0.822079	1.22088
-0.882093	-2.27311
-0.832154	1.19657
-0.892108	-2.25796
-0.84207	1.1776
-0.902103	-2.25669
-0.852161	1.16067
-0.912106	-2.25402
-0.862102	1.14769
-0.922083	-2.25796
-0.872132	1.13547
-0.932078	-2.25631
-0.882059	1.12364
-0.942108	-2.25936
-0.892077	1.11575
-0.95208	-2.27298
-0.902042	1.12262
-0.962125	-2.27693
-0.912083	1.12058
-0.97204	-2.27934
-0.922063	1.11269
-0.982085	-2.28775
-0.932128	1.12122
-0.992077	-2.28813
-0.942066	1.12631
-1.00208	-2.29436
-0.952076	1.13586
-1.01206	-2.29105
-0.962064	1.13967
-1.02207	-2.29411
-0.972082	1.13955
-1.03204	-2.29436
-0.982066	1.14324
-1.04201	-2.2936
-0.992085	1.14044
-1.05206	-2.2992
-1.00206	1.14922
-1.06206	-2.30124
-1.01201	1.14935
-1.07205	-2.29538
-1.0221	1.15469
-1.08207	-2.30047
-1.03201	1.1496
-1.09203	-2.30607
-1.04209	1.14642
-1.10209	-2.3244
-1.05205	1.1482
-1.11201	-2.34489
-1.06207	1.14477
-1.12214	-2.36487
-1.07202	1.14871