File: VFSWV_data_prep/Example_data/CoPc(OMe)8_VFSWV_txt_data/CoPc(OMe)8_CNT_VFSWV_scans_61_60_C02.txt
Ewe/V	<I>/mA
-0.122083	0.009462
-0.0720606	0.0240988
-0.132083	0.0126439
-0.0820941	0.0211322
-0.142036	0.0143083
-0.0920857	0.0208287
-0.152085	0.00812071
-0.102051	0.0203294
-0.162065	0.0135348
-0.112103	0.0234526
-0.172045	0.00971656
-0.122122	0.0170888
-0.182083	0.0061822
-0.13206	0.0173042
-0.192082	0.00734726
-0.142089	0.0202511
-0.202085	0.00760181
-0.152127	0.0166188
-0.212076	0.00347024
-0.16208	0.0131432
-0.222015	0.00184502
-0.172091	0.0134859
-0.232075	0.00087576
-0.18204	0.0148663
-0.242063	8.2732e-05
-0.192005	0.0156202
-0.252001	-0.000426373
-0.202039	0.0123012
-0.262023	-0.00386283
-0.21205	0.0145433
-0.272014	-0.00036763
-0.222037	0.0151209
-0.28214	0.000484141
-0.232056	0.0155811
-0.292135	0.000738694
-0.242028	0.0199378
-0.302165	-0.00179704
-0.252039	0.018479
-0.312134	-0.00310896
-0.262038	0.0134859
-0.322129	0.00404787
-0.272056	0.0147293
-0.332098	0.00490943
-0.282132	0.0156692
-0.342055	0.00121843
-0.292112	0.013574
-0.352104	-0.000455744
-0.302138	0.014367
-0.362107	0.00256951
-0.312111	0.0183126
-0.372064	0.00202125
-0.322148	0.0153461
-0.38209	-0.00107254
-0.332121	0.0138481
-0.39212	-0.00274671
-0.342101	0.0170202
-0.402165	0.000895341
-0.352066	0.0104998
-0.412053	0.000601627
-0.362126	0.016002
-0.422072	-0.00384325
-0.372129	0.0185476
-0.432048	0.000366656
-0.382143	0.0195658
-0.442043	0.00198208
-0.392093	0.0175
-0.452073	-0.00273692
-0.402096	0.0178231
-0.462114	-0.00342226
-0.412111	0.0199084
-0.472041	-0.00504748
-0.422041	0.0186161
-0.482059	-0.00612443
-0.432094	0.0146803
-0.492039	-0.00251174
-0.442082	0.0179993
-0.502008	-0.000563439
-0.45205	0.017079
-0.512053	-0.0052237
-0.462076	0.0162076
-0.522033	-0.000602601
-0.472026	0.0119684
-0.532078	-0.00530203
-0.482082	0.0147587
-0.542009	-0.00811189
-0.492074	0.0151503
-0.552042	-0.00595799
-0.502088	0.0188217
-0.562019	-0.014133
-0.512004	0.0171377
-0.572014	-0.00837624
-0.52203	0.011283
-0.582055	-0.00898325
-0.532052	0.0164132
-0.592036	-0.0150435
-0.542043	0.0116649
-0.601985	-0.0137218
-0.552019	0.0155419
-0.612095	-0.0161009
-0.562023	0.0115767
-0.622125	-0.0200073
-0.571999	0.0186259
-0.632006	-0.0246872
-0.582006	0.0108327
-0.642005	-0.026332
-0.592093	0.0103627
-0.652027	-0.0255487
-0.602058	0.00611366
-0.662011	-0.0295237
-0.612042	0.0159041
-0.672033	-0.0278593
-0.622029	0.0184105
-0.681979	-0.0326077
-0.632036	0.0119977
-0.691997	-0.0299838
-0.642035	0.0203392
-0.701985	-0.025862
-0.652069	0.0171475
-0.712114	-0.0292202
-0.661988	0.0191448
-0.722075	-0.0295041
-0.672071	0.0149838
-0.732109	-0.0290537
-0.681971	0.0178133
-0.7421	-0.0300621
-0.692047	0.0170594
-0.752031	-0.0318636
-0.702084	0.00920745
-0.76208	-0.0358091
-0.71211	0.00797385
-0.772098	-0.0397449
-0.722132	0.0116355
-0.782139	-0.0397253
-0.732082	0.0120369
-0.792073	-0.0353196
-0.742112	0.00226601
-0.80205	-0.0389029
-0.752058	0.0065934
-0.812072	-0.0363378
-0.762099	0.00441991
-0.822064	-0.0371211
-0.772067	0.00806197
-0.832109	-0.034879
-0.782154	0.0116159
-0.842035	-0.040254
-0.792001	0.00800322
-0.852084	-0.0378651
-0.802054	0.00675983
-0.862083	-0.0357994
-0.812045	0.00755286
-0.872113	-0.0385309
-0.822109	0.00653465
-0.882097	-0.0358679
-0.832093	0.00774867
-0.892062	-0.0355056
-0.84207	0.0107348
-0.902069	-0.030209
-0.852046	0.00646612
-0.912106	-0.0306887
-0.862072	0.013339
-0.922098	-0.0350553
-0.872132	0.00768993
-0.932097	-0.0359658
-0.882093	0.00981446
-0.942039	-0.0341448
-0.892066	0.0118313
-0.952042	-0.0370721
-0.902073	0.00662277
-0.962068	-0.0378847
-0.912057	0.00622136
-0.972029	-0.033528
-0.92201	0.0117628
-0.982021	-0.0374539
-0.932028	0.00716124
-0.992073	-0.0325881
-0.942016	0.00904101
-1.00205	-0.0365826
-0.952046	0.00206041
-1.01204	-0.0352609
-0.96206	0.00900185
-1.022	-0.038384
-0.972018	0.0060745
-1.03207	-0.0391281
-0.982017	0.0038129
-1.04211	-0.0403813
-0.992096	0.00657382
-1.05204	-0.0419282
-1.0021	0.0074158
-1.06201	-0.041703
-1.01203	0.00300029
-1.07206	-0.0380805
-1.02207	0.000601627
-1.08202	-0.0423981
-1.03201	0.00479195
-1.09201	-0.0495452
-1.04206	0.00908997
-1.102	-0.0487424
-1.05202	0.0031961
-1.11199	-0.0454625
-1.06202	-0.000250144
-1.12213	-0.0525606
-1.07199	0.000758275