File: VFSWV_data_prep/Example_data/CoPc(OMe)8_VFSWV_txt_data/CoPc(OMe)8_CNT_VFSWV_scans_04_3_C02.txt
Ewe/V	<I>/mA
-0.122053	-2.13298
-0.072114	4.18266
-0.13206	-4.6477
-0.0821438	3.53698
-0.142036	-4.85694
-0.0921048	3.45814
-0.152028	-4.88882
-0.102077	3.44382
-0.162069	-4.90906
-0.112099	3.42587
-0.172099	-4.92166
-0.122099	3.42339
-0.182056	-4.94705
-0.132067	3.41824
-0.19204	-4.96729
-0.142097	3.419
-0.20205	-4.9881
-0.152115	3.42702
-0.212084	-5.01998
-0.162088	3.43389
-0.222057	-5.05435
-0.172045	3.43446
-0.232063	-5.08928
-0.182056	3.44687
-0.242082	-5.13281
-0.192021	3.46043
-0.2521	-5.17519
-0.202054	3.46425
-0.26208	-5.21319
-0.212057	3.46997
-0.272064	-5.26111
-0.222076	3.46405
-0.282159	-5.31418
-0.23201	3.47837
-0.292177	-5.34912
-0.24207	3.49384
-0.302165	-5.37451
-0.252043	3.49651
-0.312168	-5.4083
-0.262038	3.48639
-0.322163	-5.43694
-0.272034	3.49097
-0.332159	-5.46118
-0.282098	3.47284
-0.342158	-5.49326
-0.29212	3.46845
-0.352123	-5.524
-0.302153	3.45699
-0.36213	-5.54481
-0.312092	3.46615
-0.372152	-5.57287
-0.322133	3.45699
-0.382117	-5.61182
-0.332082	3.45031
-0.392181	-5.63816
-0.342139	3.45775
-0.402169	-5.67558
-0.352131	3.45947
-0.412164	-5.73266
-0.362114	3.46864
-0.422087	-5.76989
-0.372079	3.47475
-0.432155	-5.8285
-0.382101	3.48124
-0.442078	-5.88463
-0.392112	3.48219
-0.452157	-5.96272
-0.402058	3.50357
-0.462198	-6.03775
-0.412042	3.5135
-0.472064	-6.10037
-0.422148	3.51961
-0.48212	-6.18036
-0.432075	3.54328
-0.492143	-6.26856
-0.442013	3.55646
-0.502084	-6.37624
-0.45213	3.57688
-0.512126	-6.50701
-0.462084	3.60686
-0.522064	-6.65421
-0.472052	3.63721
-0.532055	-6.8266
-0.482098	3.66967
-0.542093	-7.02153
-0.492005	3.68322
-0.552054	-7.24929
-0.502081	3.71377
-0.562091	-7.49709
-0.512053	3.72045
-0.572064	-7.76972
-0.522083	3.69582
-0.582094	-8.05265
-0.532082	3.6733
-0.592062	-8.35373
-0.542062	3.60266
-0.602077	-8.66415
-0.552081	3.53336
-0.612019	-8.95568
-0.56208	3.42415
-0.622041	-9.25885
-0.572098	3.297
-0.632063	-9.54198
-0.582063	3.15191
-0.642032	-9.81727
-0.592085	3.00892
-0.65205	-10.0624
-0.602046	2.87241
-0.662034	-10.2936
-0.612061	2.73018
-0.672045	-10.4933
-0.622006	2.61258
-0.682013	-10.6541
-0.632063	2.49975
-0.692043	-10.7655
-0.64207	2.40372
-0.702061	-10.8234
-0.652035	2.35122
-0.712114	-10.8749
-0.661992	2.32277
-0.722144	-10.8394
-0.672052	2.32869
-0.732059	-10.7539
-0.682029	2.35427
-0.742123	-10.6323
-0.692066	2.39704
-0.75213	-10.4607
-0.7021	2.45106
-0.762125	-10.2575
-0.712141	2.53182
-0.772125	-10.0494
-0.722174	2.60475
-0.782132	-9.82071
-0.732158	2.67806
-0.7921	-9.60784
-0.742138	2.74202
-0.802077	-9.40776
-0.752138	2.79127
-0.812125	-9.22048
-0.762114	2.82545
-0.822098	-9.05534
-0.772144	2.84912
-0.832109	-8.91349
-0.782109	2.85198
-0.842108	-8.79168
-0.792127	2.8642
-0.852122	-8.70138
-0.802092	2.85046
-0.86206	-8.62253
-0.812087	2.84855
-0.872155	-8.55934
-0.822113	2.84817
-0.882097	-8.50149
-0.832086	2.84129
-0.892127	-8.47037
-0.842089	2.82468
-0.902088	-8.43868
-0.85213	2.81628
-0.912072	-8.41864
-0.862079	2.80788
-0.922075	-8.40394
-0.87214	2.79776
-0.932063	-8.40699
-0.882074	2.78497
-0.942123	-8.41329
-0.892115	2.76894
-0.952046	-8.42284
-0.902145	2.73572
-0.962064	-8.43467
-0.912057	2.72312
-0.97209	-8.4488
-0.922094	2.70326
-0.98215	-8.48011
-0.932105	2.68188
-0.9921	-8.50798
-0.942077	2.66699
-1.00207	-8.52517
-0.952088	2.65381
-1.01207	-8.55113
-0.96211	2.65019
-1.02206	-8.56106
-0.972063	2.64675
-1.03205	-8.56812
-0.982135	2.64809
-1.04211	-8.57996
-0.992138	2.6521
-1.05206	-8.57003
-1.0021	2.66871
-1.062	-8.57767
-1.01205	2.67233
-1.072	-8.56831
-1.0221	2.67214
-1.082	-8.56889
-1.03205	2.68207
-1.09201	-8.56755
-1.04208	2.68302
-1.10207	-8.56144
-1.05206	2.67959
-1.11205	-8.56259
-1.06207	2.68264
-1.12213	-8.58912
-1.07204	2.67291