File: VFSWV_data_prep/Example_data/CoPc(OMe)8_VFSWV_txt_data/CoPc(OMe)8_CNT_VFSWV_scans_08_7_C02.txt
Ewe/V	<I>/mA
-0.122122	-0.824069
-0.0720949	1.76034
-0.13206	-1.97662
-0.0820521	1.59672
-0.142109	-2.01346
-0.0921163	1.57076
-0.152073	-2.02721
-0.102077	1.56599
-0.162054	-2.03256
-0.112077	1.55377
-0.172053	-2.05108
-0.122106	1.54995
-0.182071	-2.07379
-0.132064	1.55339
-0.192051	-2.0883
-0.14207	1.56102
-0.202035	-2.11809
-0.152089	1.57038
-0.212073	-2.14825
-0.162054	1.57534
-0.222026	-2.17574
-0.172095	1.59023
-0.232063	-2.21221
-0.182102	1.61429
-0.242089	-2.24294
-0.19204	1.62288
-0.252077	-2.28934
-0.20202	1.64407
-0.262073	-2.33153
-0.212034	1.66507
-0.272053	-2.35845
-0.222064	1.68588
-0.282163	-2.40484
-0.232044	1.70039
-0.292112	-2.43329
-0.242032	1.72311
-0.302115	-2.46631
-0.25202	1.73208
-0.312134	-2.49113
-0.262053	1.74545
-0.322098	-2.52645
-0.272037	1.76015
-0.33214	-2.53943
-0.282151	1.76874
-0.342074	-2.5654
-0.292116	1.7632
-0.352085	-2.58869
-0.302108	1.77847
-0.362111	-2.6158
-0.312069	1.79088
-0.372156	-2.6389
-0.322167	1.80062
-0.382101	-2.67269
-0.33209	1.80635
-0.392097	-2.71049
-0.342097	1.82009
-0.402111	-2.74638
-0.352085	1.84071
-0.412111	-2.78991
-0.362103	1.85847
-0.422129	-2.83573
-0.372156	1.88233
-0.432143	-2.90274
-0.382132	1.91097
-0.442078	-2.96154
-0.392085	1.93731
-0.452127	-3.02416
-0.40213	1.96996
-0.462107	-3.09423
-0.412069	2.00929
-0.472102	-3.17594
-0.422148	2.04594
-0.482101	-3.26815
-0.432086	2.09291
-0.492104	-3.37526
-0.442043	2.15534
-0.502084	-3.49515
-0.452085	2.21872
-0.512049	-3.63814
-0.462114	2.29528
-0.522114	-3.82791
-0.472136	2.38539
-0.532017	-4.03009
-0.482098	2.50452
-0.542074	-4.27007
-0.492059	2.63568
-0.5521	-4.53124
-0.502096	2.7781
-0.562057	-4.8073
-0.512072	2.92052
-0.57206	-5.13128
-0.522052	3.06581
-0.582055	-5.44477
-0.532078	3.21281
-0.592108	-5.76207
-0.542089	3.32927
-0.602065	-6.07478
-0.552061	3.40697
-0.612053	-6.37815
-0.562095	3.47246
-0.622071	-6.65726
-0.572045	3.49995
-0.632082	-6.91156
-0.582074	3.51637
-0.642043	-7.13092
-0.592077	3.49995
-0.652046	-7.32279
-0.602061	3.47685
-0.662	-7.48106
-0.612061	3.45222
-0.672033	-7.59274
-0.622045	3.41957
-0.681994	-7.66605
-0.632036	3.39208
-0.692043	-7.69431
-0.642058	3.36115
-0.702054	-7.67789
-0.652027	3.33671
-0.71211	-7.64543
-0.662034	3.32373
-0.722083	-7.53146
-0.672052	3.29204
-0.732101	-7.38789
-0.682052	3.27199
-0.742062	-7.2153
-0.692085	3.24603
-0.752142	-7.01332
-0.702103	3.20117
-0.762057	-6.81133
-0.712103	3.16508
-0.772163	-6.59273
-0.722117	3.11525
-0.782044	-6.38445
-0.732086	3.05283
-0.792035	-6.17711
-0.742089	2.98371
-0.802126	-6.00224
-0.752077	2.93102
-0.812102	-5.8453
-0.762106	2.85313
-0.822121	-5.69505
-0.772083	2.79242
-0.832105	-5.5744
-0.782116	2.71433
-0.84207	-5.47436
-0.792081	2.66126
-0.852107	-5.39303
-0.802111	2.61888
-0.862114	-5.32793
-0.812072	2.5721
-0.872121	-5.25882
-0.822079	2.53908
-0.882093	-5.22999
-0.832078	2.51349
-0.892073	-5.19543
-0.842085	2.48505
-0.902096	-5.17138
-0.852099	2.46538
-0.912079	-5.16355
-0.862114	2.44247
-0.922083	-5.15152
-0.87214	2.42491
-0.932089	-5.15706
-0.88204	2.41345
-0.942115	-5.16431
-0.892096	2.40162
-0.95213	-5.16489
-0.902126	2.39398
-0.962072	-5.18455
-0.912095	2.37813
-0.972098	-5.19696
-0.922086	2.36668
-0.982135	-5.20822
-0.93207	2.36763
-0.992115	-5.20937
-0.942085	2.3726
-1.0021	-5.23381
-0.952073	2.38443
-1.01209	-5.23915
-0.962083	2.38424
-1.02206	-5.24011
-0.972056	2.39723
-1.03207	-5.2466
-0.982063	2.40124
-1.04204	-5.24583
-0.992077	2.40429
-1.05203	-5.23533
-1.00209	2.41651
-1.06202	-5.24507
-1.01212	2.4188
-1.072	-5.24297
-1.02203	2.41708
-1.08202	-5.24335
-1.03213	2.42357
-1.09204	-5.24755
-1.04208	2.42014
-1.10204	-5.2466
-1.05213	2.42434
-1.11206	-5.25882
-1.06206	2.41002
-1.12215	-5.28917
-1.07204	2.41899