File: VFSWV_data_prep/Example_data/CoPc(OMe)8_VFSWV_txt_data/CoPc(OMe)8_CNT_VFSWV_scans_18_17_C02.txt
Ewe/V	<I>/mA
-0.122102	-0.122651
-0.0721293	0.279287
-0.132056	-0.313947
-0.0820903	0.260578
-0.142074	-0.316365
-0.0920934	0.247214
-0.152073	-0.327565
-0.102096	0.244796
-0.162096	-0.332656
-0.112065	0.237414
-0.172057	-0.338766
-0.122102	0.236395
-0.182029	-0.355184
-0.132086	0.244032
-0.192089	-0.355184
-0.142097	0.233595
-0.202096	-0.37033
-0.152093	0.24365
-0.212069	-0.38624
-0.162111	0.24505
-0.222091	-0.395149
-0.172087	0.25345
-0.232029	-0.408386
-0.182056	0.252687
-0.242021	-0.425695
-0.192063	0.260451
-0.252058	-0.435241
-0.202043	0.268851
-0.26205	-0.454332
-0.212096	0.270633
-0.272056	-0.472915
-0.222064	0.280051
-0.282102	-0.482588
-0.232025	0.292524
-0.292108	-0.494806
-0.24204	0.297233
-0.302115	-0.509061
-0.252058	0.313016
-0.312137	-0.522934
-0.262011	0.314034
-0.322118	-0.533625
-0.27203	0.31887
-0.33214	-0.546226
-0.282166	0.320016
-0.34212	-0.555517
-0.292131	0.322816
-0.352111	-0.571299
-0.30215	0.338471
-0.362107	-0.58759
-0.312122	0.33058
-0.372068	-0.594081
-0.322091	0.339107
-0.382094	-0.604518
-0.33209	0.346489
-0.392116	-0.62781
-0.342162	0.344453
-0.402115	-0.641937
-0.352119	0.364435
-0.412072	-0.665483
-0.36216	0.36889
-0.422095	-0.688393
-0.372102	0.372326
-0.432078	-0.713848
-0.382101	0.384545
-0.442104	-0.74974
-0.392143	0.402236
-0.452081	-0.769213
-0.402142	0.423237
-0.462103	-0.807778
-0.412076	0.431637
-0.472049	-0.849397
-0.422106	0.454165
-0.482056	-0.898526
-0.432067	0.469947
-0.492051	-0.964201
-0.442097	0.509148
-0.502096	-1.04108
-0.452073	0.548986
-0.512046	-1.13386
-0.462046	0.582968
-0.52211	-1.24904
-0.472117	0.639097
-0.532086	-1.39694
-0.48209	0.727554
-0.542089	-1.56138
-0.492074	0.822502
-0.552073	-1.76846
-0.50205	0.962251
-0.562015	-2.01232
-0.512049	1.10938
-0.572037	-2.26929
-0.52206	1.30526
-0.582071	-2.55337
-0.532067	1.51068
-0.592039	-2.84343
-0.542085	1.73342
-0.602073	-3.14164
-0.552042	1.96264
-0.612068	-3.42521
-0.562042	2.16883
-0.622045	-3.68396
-0.572018	2.353
-0.632048	-3.91739
-0.582082	2.50637
-0.642043	-4.10932
-0.5921	2.62346
-0.652027	-4.2604
-0.602046	2.69664
-0.662061	-4.37036
-0.612099	2.75863
-0.672033	-4.43489
-0.622018	2.78701
-0.682025	-4.44648
-0.632052	2.79083
-0.692062	-4.41478
-0.642066	2.76894
-0.702004	-4.336
-0.652016	2.72108
-0.712148	-4.23329
-0.662019	2.65846
-0.722106	-4.07317
-0.672026	2.56835
-0.732135	-3.88353
-0.682009	2.47353
-0.742096	-3.68371
-0.692043	2.34943
-0.752153	-3.47612
-0.702107	2.22088
-0.762125	-3.25746
-0.712145	2.08215
-0.77206	-3.064
-0.722132	1.94902
-0.782097	-2.89333
-0.732109	1.82455
-0.792108	-2.72379
-0.7421	1.69205
-0.802115	-2.58837
-0.752111	1.58094
-0.812072	-2.47179
-0.762076	1.48612
-0.822132	-2.36284
-0.772109	1.39397
-0.832105	-2.29029
-0.782124	1.3129
-0.842062	-2.21647
-0.792123	1.24837
-0.852134	-2.16658
-0.802096	1.20522
-0.862099	-2.13069
-0.812106	1.15826
-0.872132	-2.10421
-0.822083	1.11766
-0.882074	-2.07914
-0.832101	1.0894
-0.892112	-2.06539
-0.842161	1.06802
-0.902027	-2.06068
-0.852084	1.05644
-0.912118	-2.06348
-0.862079	1.046
-0.92209	-2.06679
-0.872098	1.03098
-0.932021	-2.06743
-0.882078	1.01405
-0.942115	-2.07634
-0.892077	1.02462
-0.952096	-2.07545
-0.902073	1.01202
-0.962099	-2.08181
-0.912003	1.01431
-0.972109	-2.08652
-0.922113	1.02016
-0.982021	-2.09569
-0.932108	1.0194
-0.992066	-2.09454
-0.94207	1.0222
-1.00205	-2.08678
-0.952076	1.04142
-1.01205	-2.09619
-0.962049	1.03391
-1.022	-2.08958
-0.972037	1.03671
-1.03206	-2.09849
-0.982066	1.03798
-1.04204	-2.10867
-0.992073	1.04765
-1.05208	-2.10409
-1.00206	1.04256
-1.06204	-2.10599
-1.01208	1.04091
-1.07207	-2.09938
-1.02206	1.04587
-1.08208	-2.11134
-1.03203	1.04409
-1.09206	-2.11872
-1.04205	1.04282
-1.10204	-2.13107
-1.05211	1.04727
-1.11207	-2.13565
-1.062	1.04218
-1.12212	-2.17103
-1.07203	1.04422