File: VFSWV_data_prep/Example_data/CoPc(OMe)8_VFSWV_txt_data/CoPc(OMe)8_CNT_VFSWV_scans_54_53_C02.txt
Ewe/V	<I>/mA
-0.122087	-8.37047e-05
-0.0721178	0.0158663
-0.132064	-0.00379786
-0.0821285	0.0185738
-0.142063	0.00416847
-0.0920743	0.0138877
-0.152073	0.0027453
-0.102074	0.0137489
-0.162073	-8.37057e-05
-0.112061	0.018192
-0.17208	-0.00575907
-0.122133	0.0131414
-0.18209	-0.00365901
-0.132102	0.0149985
-0.192036	-0.000396111
-0.142047	0.0139225
-0.202031	-0.00161102
-0.152058	0.0187474
-0.212076	-0.00530781
-0.162065	0.0190945
-0.222068	-0.00903932
-0.172076	0.0125861
-0.232082	-0.00471771
-0.182063	0.0186432
-0.242047	-0.000465534
-0.192032	0.0176019
-0.252054	-0.0081021
-0.20207	0.0190077
-0.26205	-0.00990711
-0.212107	0.0102604
-0.272049	-0.00777234
-0.222049	0.0216111
-0.282124	-0.000795295
-0.232079	0.0148076
-0.292162	-0.0114865
-0.242017	0.0146861
-0.302146	-0.0120939
-0.252058	0.0177234
-0.312084	-0.0123543
-0.262042	0.0139398
-0.322114	-0.0113129
-0.272037	0.0113017
-0.332124	-0.0113997
-0.282144	0.0136448
-0.342062	-0.010584
-0.292173	0.0139398
-0.352062	-0.0106187
-0.302108	0.0141307
-0.362126	-0.0120245
-0.31216	0.0151721
-0.372079	-0.0124931
-0.32214	0.0121001
-0.382128	-0.0110005
-0.332113	0.0208821
-0.392101	-0.0120766
-0.342154	0.013801
-0.402115	-0.00641859
-0.352134	0.0225657
-0.412038	-0.00923023
-0.362141	0.0190945
-0.422091	-0.00313833
-0.372125	0.0277377
-0.432071	-0.0132047
-0.382044	0.0159704
-0.442108	-0.014194
-0.392093	0.0178275
-0.452077	-0.013656
-0.402119	0.0167862
-0.462065	-0.0103063
-0.412088	0.0149291
-0.472098	-0.0141419
-0.422121	0.0118745
-0.482101	-0.0160511
-0.432097	0.0167515
-0.492028	-0.0151659
-0.442101	0.0180184
-0.5021	-0.0153568
-0.452119	0.0206739
-0.512118	-0.0122675
-0.462091	0.0226524
-0.522087	-0.0145411
-0.47206	0.0219235
-0.532101	-0.0166412
-0.48212	0.0193722
-0.542085	-0.0187759
-0.492081	0.0230343
-0.552058	-0.0176825
-0.502088	0.0206912
-0.562076	-0.0238265
-0.512049	0.0230169
-0.572094	-0.0258051
-0.522045	0.0246484
-0.582059	-0.0262216
-0.532036	0.02024
-0.592013	-0.0333375
-0.542055	0.0239368
-0.602073	-0.0315846
-0.552073	0.0218541
-0.612049	-0.0405922
-0.562114	0.0182961
-0.622094	-0.0460767
-0.572045	0.0230169
-0.632086	-0.0469792
-0.582074	0.0270782
-0.642043	-0.0425014
-0.592078	0.0260889
-0.651962	-0.0515611
-0.602023	0.0311221
-0.662068	-0.0535918
-0.612045	0.0304279
-0.672045	-0.0518041
-0.622014	0.0309138
-0.682093	-0.0547372
-0.632044	0.0410496
-0.692058	-0.0524463
-0.641997	0.0292477
-0.702027	-0.0556397
-0.652008	0.0308791
-0.712099	-0.0578092
-0.661988	0.0297857
-0.722144	-0.0574621
-0.672048	0.0266616
-0.73212	-0.0551364
-0.682048	0.029265
-0.742104	-0.0591109
-0.691967	0.0297857
-0.752111	-0.0579654
-0.702111	0.0256376
-0.762091	-0.0600134
-0.712145	0.0235202
-0.772113	-0.056334
-0.722132	0.0264534
-0.782097	-0.0619226
-0.73212	0.0225483
-0.792073	-0.0616449
-0.742051	0.0239194
-0.802069	-0.0588332
-0.752092	0.0227913
-0.812137	-0.0603605
-0.762076	0.0231384
-0.822109	-0.0582084
-0.772071	0.0216979
-0.832101	-0.0601696
-0.782135	0.018678
-0.842085	-0.0628945
-0.792077	0.0258112
-0.85208	-0.0593539
-0.802065	0.0201358
-0.862053	-0.0633284
-0.81206	0.0256029
-0.872178	-0.0607424
-0.822048	0.0234335
-0.882078	-0.053505
-0.832036	0.0237285
-0.89207	-0.0596837
-0.842123	0.018487
-0.902107	-0.0625821
-0.852092	0.0177407
-0.912068	-0.0635367
-0.862087	0.0131241
-0.922086	-0.0617143
-0.872113	0.0178275
-0.932047	-0.0611936
-0.882017	0.0194937
-0.942127	-0.0589026
-0.892077	0.0212119
-0.952053	-0.0605341
-0.902065	0.0185044
-0.96206	-0.0581911
-0.912072	0.0196846
-0.972048	-0.0685698
-0.922018	0.0188168
-0.982082	-0.0672161
-0.932036	0.0175325
-0.992058	-0.0645954
-0.942096	0.0182093
-1.00207	-0.0646648
-0.952111	0.0195631
-1.01208	-0.0687781
-0.962034	0.0167862
-1.02207	-0.0719889
-0.972029	0.0152241
-1.03202	-0.068188
-0.98207	0.0172201
-1.04211	-0.0650466
-0.992073	0.017949
-1.05202	-0.0664177
-1.00202	0.0160746
-1.06206	-0.072527
-1.01205	0.0124993
-1.07205	-0.0719195
-1.02208	0.0168035
-1.08207	-0.0671293
-1.03205	0.0180184
-1.092	-0.077161
-1.04209	0.0168556
-1.10205	-0.0744188
-1.0521	0.0152936
-1.11202	-0.0795387
-1.06203	0.0159531
-1.12214	-0.0811181
-1.07204	0.0116662