File: VFSWV_data_prep/Example_data/CoPc(OMe)8_VFSWV_txt_data/CoPc(OMe)8_CNT_VFSWV_scans_19_18_C02.txt
Ewe/V	<I>/mA
-0.122068	-0.103559
-0.072114	0.247723
-0.132094	-0.264945
-0.0820827	0.221377
-0.142101	-0.278055
-0.0921048	0.214758
-0.152085	-0.280218
-0.102062	0.214631
-0.162107	-0.282891
-0.112084	0.212467
-0.172072	-0.287982
-0.122118	0.204958
-0.18206	-0.299183
-0.132144	0.204194
-0.192021	-0.307074
-0.142063	0.208904
-0.202039	-0.321838
-0.152127	0.208904
-0.21208	-0.327438
-0.162084	0.214249
-0.222053	-0.337747
-0.172091	0.21934
-0.23209	-0.349075
-0.182079	0.222013
-0.24207	-0.362312
-0.192036	0.222904
-0.252073	-0.386494
-0.202081	0.221504
-0.262065	-0.403931
-0.212065	0.232068
-0.27203	-0.40864
-0.222045	0.238686
-0.28214	-0.419204
-0.232021	0.255105
-0.292097	-0.431168
-0.242082	0.254214
-0.302127	-0.445423
-0.25202	0.264396
-0.312099	-0.450005
-0.26205	0.270124
-0.322117	-0.46846
-0.27198	0.268214
-0.332121	-0.488188
-0.282109	0.268469
-0.342101	-0.490097
-0.29217	0.277251
-0.352119	-0.509952
-0.30215	0.270124
-0.362126	-0.511988
-0.312069	0.288833
-0.372087	-0.521661
-0.322125	0.295324
-0.38212	-0.53808
-0.332113	0.291124
-0.392143	-0.548644
-0.34212	0.304743
-0.402085	-0.568117
-0.352054	0.309706
-0.41205	-0.585809
-0.36208	0.318234
-0.422121	-0.615718
-0.372114	0.318488
-0.43212	-0.639646
-0.38209	0.327398
-0.442104	-0.653519
-0.392116	0.352471
-0.452096	-0.680757
-0.402115	0.355908
-0.462122	-0.718303
-0.412111	0.371817
-0.472091	-0.750504
-0.422087	0.392818
-0.48209	-0.804342
-0.432094	0.412036
-0.492074	-0.858561
-0.442112	0.427819
-0.502058	-0.928054
-0.452073	0.470329
-0.512061	-1.02071
-0.462072	0.504439
-0.522045	-1.12699
-0.472102	0.564386
-0.532067	-1.2563
-0.482071	0.635151
-0.542043	-1.41934
-0.49212	0.7343
-0.552073	-1.62718
-0.502115	0.843757
-0.562061	-1.83439
-0.512057	0.996488
-0.572052	-2.09632
-0.52203	1.17544
-0.582044	-2.37518
-0.532082	1.37615
-0.592081	-2.64628
-0.542108	1.6013
-0.602092	-2.93278
-0.552046	1.82989
-0.612068	-3.21584
-0.562015	2.03837
-0.621984	-3.47167
-0.572064	2.22814
-0.63204	-3.69618
-0.582029	2.38482
-0.64202	-3.88252
-0.592047	2.50815
-0.652023	-4.0425
-0.602031	2.59406
-0.662034	-4.14267
-0.612068	2.65961
-0.672052	-4.20236
-0.62206	2.67895
-0.68207	-4.22094
-0.632013	2.69308
-0.692047	-4.1778
-0.642024	2.66482
-0.702023	-4.09876
-0.652019	2.612
-0.71211	-3.98001
-0.662019	2.55613
-0.722125	-3.82537
-0.672033	2.46055
-0.732151	-3.63369
-0.68199	2.36114
-0.742085	-3.44265
-0.691993	2.23272
-0.752092	-3.23608
-0.70213	2.10303
-0.762129	-3.03702
-0.712118	1.97066
-0.772106	-2.83274
-0.722083	1.82378
-0.782105	-2.66716
-0.732166	1.69791
-0.792138	-2.51519
-0.742123	1.58438
-0.80208	-2.37646
-0.752107	1.46117
-0.81211	-2.26789
-0.762118	1.36864
-0.822125	-2.17587
-0.772132	1.27917
-0.832131	-2.09963
-0.782101	1.20764
-0.842119	-2.03039
-0.792085	1.1454
-0.852118	-2.0043
-0.802054	1.09678
-0.862003	-1.95123
-0.812122	1.05274
-0.872079	-1.92577
-0.822106	1.01469
-0.88207	-1.91075
-0.832097	0.992797
-0.892123	-1.90426
-0.842115	0.96836
-0.90216	-1.89777
-0.852061	0.949015
-0.91211	-1.89026
-0.862091	0.942651
-0.922063	-1.89904
-0.872147	0.933996
-0.932074	-1.90223
-0.882147	0.925978
-0.942085	-1.90961
-0.8921	0.921777
-0.952069	-1.91648
-0.902103	0.914904
-0.962041	-1.91839
-0.912102	0.914395
-0.972048	-1.91635
-0.922098	0.919486
-0.982101	-1.93023
-0.932086	0.925468
-0.9921	-1.9259
-0.942085	0.928396
-1.00207	-1.92323
-0.952103	0.938323
-1.01204	-1.92386
-0.962037	0.942396
-1.02207	-1.92819
-0.972079	0.946724
-1.03199	-1.93137
-0.982024	0.945705
-1.04207	-1.92654
-0.992085	0.944178
-1.05204	-1.92895
-1.00203	0.947869
-1.06206	-1.94194
-1.012	0.946724
-1.07203	-1.94346
-1.02203	0.940869
-1.08205	-1.94181
-1.03203	0.94876
-1.09206	-1.95199
-1.04203	0.949778
-1.10206	-1.95568
-1.05205	0.943796
-1.11197	-1.97452
-1.06203	0.943414
-1.12207	-2.00519
-1.07205	0.938705