File: VFSWV_data_prep/Example_data/CoPc(OMe)8_VFSWV_txt_data/CoPc(OMe)8_CNT_VFSWV_scans_28_27_C02.txt
Ewe/V	<I>/mA
-0.122095	-0.0325391
-0.0720377	0.0778093
-0.132044	-0.0751512
-0.0821323	0.0662017
-0.142078	-0.0791986
-0.092059	0.0657435
-0.152104	-0.0779767
-0.102066	0.0623071
-0.162076	-0.0869879
-0.112084	0.0557396
-0.172091	-0.0913407
-0.122129	0.0529141
-0.182048	-0.0907298
-0.132083	0.0616198
-0.192108	-0.0931735
-0.142067	0.0607797
-0.202058	-0.0969154
-0.152028	0.0595579
-0.212076	-0.105697
-0.16205	0.0581833
-0.222037	-0.103865
-0.172072	0.0593288
-0.232044	-0.11173
-0.182044	0.0622307
-0.242055	-0.117992
-0.192005	0.0655144
-0.252073	-0.12372
-0.202081	0.0617725
-0.262019	-0.124789
-0.212076	0.0652853
-0.272049	-0.130211
-0.222064	0.0664308
-0.282163	-0.137771
-0.232033	0.0608561
-0.292127	-0.146859
-0.24207	0.0612379
-0.302134	-0.145255
-0.252039	0.07086
-0.312134	-0.160375
-0.262088	0.0672708
-0.32214	-0.15587
-0.27206	0.0655144
-0.332109	-0.166103
-0.282083	0.0695618
-0.342097	-0.165721
-0.292162	0.0730746
-0.352119	-0.172823
-0.302142	0.0702491
-0.362107	-0.178474
-0.312095	0.074831
-0.372144	-0.177939
-0.322114	0.0744492
-0.382082	-0.1897
-0.332098	0.0772747
-0.392089	-0.190234
-0.342116	0.0804057
-0.402108	-0.194434
-0.352134	0.0765874
-0.412107	-0.210548
-0.362137	0.0826967
-0.422045	-0.207493
-0.372095	0.0857513
-0.432124	-0.221468
-0.382075	0.0852168
-0.442143	-0.234374
-0.392108	0.0855222
-0.452081	-0.240254
-0.402073	0.0914787
-0.462111	-0.247661
-0.41208	0.089035
-0.472041	-0.261025
-0.422098	0.0968243
-0.482044	-0.273931
-0.432067	0.104919
-0.492093	-0.297223
-0.442074	0.11057
-0.502119	-0.321965
-0.452069	0.112785
-0.512137	-0.354726
-0.462095	0.123323
-0.522045	-0.398942
-0.472052	0.139284
-0.532052	-0.448503
-0.482056	0.163262
-0.542055	-0.524487
-0.492085	0.191671
-0.5521	-0.619409
-0.502073	0.234512
-0.562049	-0.720823
-0.512042	0.281935
-0.572087	-0.870576
-0.522041	0.354559
-0.58209	-1.02392
-0.531998	0.460707
-0.592028	-1.20116
-0.542036	0.583503
-0.602016	-1.39284
-0.552077	0.723252
-0.612053	-1.58246
-0.562065	0.888202
-0.622014	-1.76329
-0.572056	1.05269
-0.632013	-1.93198
-0.582059	1.20688
-0.642013	-2.07524
-0.592043	1.34174
-0.651966	-2.17131
-0.602054	1.44437
-0.662	-2.2405
-0.612015	1.51837
-0.672087	-2.27601
-0.622018	1.57603
-0.682017	-2.26074
-0.632059	1.58069
-0.692039	-2.20499
-0.642058	1.56121
-0.702035	-2.12824
-0.652035	1.51998
-0.712145	-2.01408
-0.661973	1.46041
-0.722083	-1.87585
-0.672045	1.37099
-0.732093	-1.72671
-0.68199	1.27492
-0.7421	-1.5891
-0.691963	1.16724
-0.752126	-1.44844
-0.702126	1.05949
-0.762118	-1.32106
-0.712122	0.949753
-0.772094	-1.22064
-0.722132	0.843833
-0.782105	-1.12113
-0.732078	0.755173
-0.792047	-1.05225
-0.742142	0.6756
-0.80205	-0.984361
-0.752069	0.607405
-0.812049	-0.934952
-0.762064	0.553644
-0.822064	-0.907843
-0.772094	0.498279
-0.832116	-0.869507
-0.78209	0.455285
-0.842077	-0.846063
-0.792066	0.431001
-0.852115	-0.836593
-0.802103	0.410229
-0.862106	-0.825291
-0.812129	0.385868
-0.872113	-0.813836
-0.822113	0.372123
-0.88204	-0.808491
-0.832059	0.358377
-0.892081	-0.806047
-0.842073	0.347686
-0.902096	-0.812538
-0.852107	0.342264
-0.912095	-0.811545
-0.862079	0.335085
-0.922025	-0.820939
-0.872025	0.337147
-0.932005	-0.822695
-0.882047	0.327067
-0.942073	-0.825139
-0.892081	0.329358
-0.952076	-0.821779
-0.902073	0.330198
-0.962064	-0.828728
-0.911999	0.330962
-0.972018	-0.822619
-0.922006	0.327525
-0.982074	-0.823077
-0.932105	0.336383
-0.99202	-0.822924
-0.942043	0.32531
-1.00205	-0.832241
-0.952092	0.3331
-1.01209	-0.822619
-0.961992	0.336994
-1.02207	-0.820862
-0.972018	0.337758
-1.03203	-0.822466
-0.982093	0.338293
-1.04205	-0.826666
-0.992062	0.333787
-1.05208	-0.826513
-1.00207	0.341424
-1.06205	-0.819106
-1.01204	0.345242
-1.07199	-0.833768
-1.02206	0.334169
-1.08203	-0.831859
-1.03202	0.341424
-1.09206	-0.832393
-1.04207	0.337834
-1.10206	-0.858816
-1.05202	0.335391
-1.11198	-0.86462
-1.06203	0.337224
-1.12215	-0.881649
-1.07202	0.3331