File: VFSWV_data_prep/Example_data/CoPc(OMe)8_VFSWV_txt_data/CoPc(OMe)8_CNT_VFSWV_scans_10_9_C02.txt
Ewe/V	<I>/mA
-0.122091	-0.52128
-0.0721102	1.29177
-0.132102	-1.47127
-0.0820827	1.19937
-0.142093	-1.48985
-0.0920972	1.17417
-0.152073	-1.49507
-0.102096	1.16691
-0.16213	-1.51098
-0.112084	1.15902
-0.172087	-1.51492
-0.122125	1.15889
-0.182083	-1.53083
-0.132094	1.16475
-0.192074	-1.55247
-0.142093	1.16767
-0.202035	-1.57742
-0.152077	1.17353
-0.21208	-1.59524
-0.162076	1.18613
-0.222068	-1.63011
-0.172038	1.19618
-0.232086	-1.66256
-0.182044	1.21388
-0.242055	-1.69197
-0.19204	1.23335
-0.252047	-1.72926
-0.202089	1.25155
-0.262073	-1.76642
-0.212092	1.26453
-0.272095	-1.79391
-0.222072	1.29279
-0.282178	-1.83337
-0.232052	1.30793
-0.292181	-1.85424
-0.242044	1.33224
-0.302153	-1.88313
-0.252024	1.34204
-0.312187	-1.90948
-0.262046	1.35235
-0.32216	-1.92692
-0.272034	1.36941
-0.332121	-1.94894
-0.282132	1.36648
-0.342162	-1.9819
-0.292189	1.3689
-0.352115	-2.00596
-0.302169	1.38786
-0.362183	-2.01919
-0.31216	1.40314
-0.372114	-2.04643
-0.322117	1.40314
-0.382143	-2.07341
-0.332094	1.41637
-0.392104	-2.11363
-0.34212	1.43126
-0.402142	-2.1424
-0.352119	1.44908
-0.412141	-2.18503
-0.362114	1.46716
-0.422083	-2.22971
-0.37211	1.48841
-0.43212	-2.28596
-0.38214	1.51641
-0.442143	-2.34566
-0.392101	1.55039
-0.452085	-2.40382
-0.402134	1.58527
-0.462133	-2.47026
-0.412107	1.61798
-0.472144	-2.5507
-0.42211	1.65807
-0.482082	-2.63177
-0.432052	1.71038
-0.492085	-2.73678
-0.442093	1.76409
-0.502123	-2.86112
-0.452081	1.83664
-0.512164	-3.00711
-0.462049	1.92051
-0.52214	-3.1853
-0.472098	2.03328
-0.532086	-3.38321
-0.482094	2.15636
-0.542081	-3.62287
-0.492097	2.29598
-0.552077	-3.8815
-0.502096	2.46245
-0.562084	-4.18021
-0.512042	2.63937
-0.572098	-4.50031
-0.52206	2.8243
-0.582116	-4.81545
-0.532075	3.00325
-0.592108	-5.14382
-0.542097	3.1598
-0.602039	-5.45781
-0.552084	3.29217
-0.612091	-5.75475
-0.562042	3.39781
-0.622041	-6.02559
-0.571991	3.47341
-0.632051	-6.27722
-0.582036	3.52597
-0.642074	-6.48849
-0.592066	3.5569
-0.652016	-6.66757
-0.602077	3.55996
-0.662045	-6.80707
-0.612084	3.55588
-0.672083	-6.90507
-0.622037	3.53577
-0.68204	-6.96183
-0.632063	3.51872
-0.692028	-6.97456
-0.642078	3.49466
-0.702065	-6.93816
-0.652054	3.46934
-0.712122	-6.87707
-0.66208	3.44426
-0.722155	-6.75247
-0.672045	3.39933
-0.732158	-6.60457
-0.682044	3.35619
-0.742158	-6.41557
-0.692062	3.30922
-0.752126	-6.22503
-0.702077	3.22268
-0.762122	-6.00625
-0.712122	3.16018
-0.77214	-5.78618
-0.722144	3.08229
-0.78212	-5.5758
-0.73209	2.98543
-0.792112	-5.38068
-0.742142	2.89583
-0.802122	-5.20708
-0.752073	2.80139
-0.812144	-5.05689
-0.762106	2.71828
-0.822113	-4.9062
-0.772094	2.62855
-0.832177	-4.8017
-0.782128	2.56008
-0.842115	-4.69301
-0.792142	2.49478
-0.852103	-4.60888
-0.802111	2.44005
-0.86216	-4.5511
-0.812083	2.38507
-0.872102	-4.49586
-0.822117	2.34778
-0.882112	-4.46519
-0.832112	2.3208
-0.892112	-4.42675
-0.842104	2.29369
-0.902126	-4.41695
-0.852118	2.27103
-0.912114	-4.4018
-0.86211	2.2569
-0.922063	-4.40358
-0.872079	2.23603
-0.932112	-4.40129
-0.882078	2.22521
-0.942085	-4.40358
-0.892092	2.21261
-0.952084	-4.41313
-0.902038	2.2037
-0.962083	-4.42102
-0.912106	2.19976
-0.972094	-4.42891
-0.922044	2.19581
-0.982047	-4.44342
-0.932108	2.19568
-0.992085	-4.44953
-0.942085	2.20408
-1.00208	-4.46035
-0.952073	2.20879
-1.01209	-4.4676
-0.962102	2.21236
-1.02209	-4.47066
-0.972048	2.2275
-1.03206	-4.47664
-0.982086	2.23349
-1.0421	-4.46837
-0.99205	2.23603
-1.05207	-4.46608
-1.00205	2.24303
-1.06205	-4.47193
-1.01211	2.24379
-1.07208	-4.47588
-1.02208	2.24341
-1.08204	-4.47689
-1.03204	2.24379
-1.09205	-4.47804
-1.04206	2.23565
-1.10208	-4.48937
-1.0521	2.23858
-1.11206	-4.504
-1.06209	2.23183
-1.12212	-4.5278
-1.07209	2.23654