File: VFSWV_data_prep/Example_data/CoPc(OMe)8_VFSWV_txt_data/CoPc(OMe)8_CNT_VFSWV_scans_33_32_C02.txt
Ewe/V	<I>/mA
-0.12208	-0.0333028
-0.0720911	0.0382901
-0.132094	-0.0557034
-0.0821132	0.0321172
-0.142067	-0.0639127
-0.0921124	0.0342172
-0.152066	-0.06334
-0.102096	0.0228896
-0.162103	-0.0637218
-0.112073	0.0312899
-0.172057	-0.0742221
-0.122045	0.026517
-0.18206	-0.0728857
-0.132079	0.0298262
-0.192032	-0.0696401
-0.142082	0.0211714
-0.202073	-0.0796949
-0.152081	0.0228896
-0.212031	-0.0825587
-0.162088	0.024226
-0.222068	-0.0779767
-0.17211	0.0233987
-0.232044	-0.0864406
-0.182025	0.0265806
-0.242036	-0.0834496
-0.192028	0.0232078
-0.252005	-0.093759
-0.202047	0.0204078
-0.262023	-0.0977045
-0.212103	0.0277261
-0.272049	-0.0978318
-0.222099	0.0253079
-0.282121	-0.0987864
-0.232102	0.0260715
-0.292131	-0.110368
-0.242067	0.0288716
-0.302131	-0.110114
-0.252054	0.023526
-0.312126	-0.109096
-0.262076	0.0248624
-0.322129	-0.116223
-0.272014	0.0309717
-0.332121	-0.11425
-0.282132	0.0282989
-0.342158	-0.119087
-0.29212	0.0298262
-0.352085	-0.12526
-0.302153	0.0312899
-0.362145	-0.124751
-0.312137	0.0307808
-0.372083	-0.131751
-0.322114	0.0304626
-0.38214	-0.130733
-0.332132	0.0312899
-0.39212	-0.135951
-0.342158	0.0349809
-0.402081	-0.137987
-0.352111	0.0342172
-0.41213	-0.154088
-0.362107	0.0356173
-0.422083	-0.15046
-0.372133	0.033199
-0.432109	-0.150524
-0.382147	0.0386719
-0.442097	-0.162679
-0.392097	0.0349809
-0.452062	-0.165352
-0.402069	0.0380355
-0.462088	-0.176807
-0.41213	0.0415356
-0.472102	-0.179225
-0.422053	0.03549
-0.482059	-0.183043
-0.432044	0.0432538
-0.492059	-0.194498
-0.442066	0.0415992
-0.502077	-0.205444
-0.452069	0.0455448
-0.512088	-0.223772
-0.462023	0.0480267
-0.522083	-0.239745
-0.472068	0.0540087
-0.532094	-0.261954
-0.482082	0.0635544
-0.542051	-0.303892
-0.492123	0.0727182
-0.552058	-0.352257
-0.502084	0.0897096
-0.562088	-0.422068
-0.512084	0.113574
-0.572071	-0.496397
-0.522041	0.14902
-0.582067	-0.5895
-0.532094	0.19484
-0.592032	-0.709712
-0.542058	0.256314
-0.602031	-0.830242
-0.552027	0.337262
-0.612084	-0.957773
-0.562057	0.438192
-0.62206	-1.07932
-0.572068	0.544531
-0.632017	-1.20081
-0.582025	0.652588
-0.642016	-1.29518
-0.592077	0.763064
-0.652042	-1.37358
-0.602054	0.85483
-0.662019	-1.41781
-0.612091	0.911468
-0.672041	-1.43754
-0.622087	0.960024
-0.682051	-1.41781
-0.632067	0.97517
-0.69202	-1.37225
-0.642036	0.967215
-0.702016	-1.30091
-0.652065	0.93495
-0.712118	-1.21913
-0.662034	0.893586
-0.722167	-1.12285
-0.672003	0.823775
-0.732086	-1.02243
-0.682017	0.750909
-0.742127	-0.932827
-0.692035	0.672825
-0.752115	-0.84787
-0.702069	0.592641
-0.762148	-0.770168
-0.712087	0.518567
-0.772136	-0.710666
-0.722109	0.454101
-0.782135	-0.664911
-0.732112	0.397972
-0.792085	-0.625328
-0.742158	0.348398
-0.802092	-0.603754
-0.752122	0.309897
-0.812141	-0.582117
-0.762076	0.274578
-0.822109	-0.554817
-0.772102	0.244159
-0.832074	-0.540816
-0.78212	0.219404
-0.842177	-0.538462
-0.792058	0.209986
-0.852061	-0.527071
-0.802099	0.189558
-0.862118	-0.527198
-0.812114	0.180585
-0.872113	-0.526116
-0.822102	0.17333
-0.882151	-0.528471
-0.83207	0.169321
-0.892127	-0.52198
-0.842054	0.162321
-0.902065	-0.529234
-0.852111	0.163721
-0.912102	-0.532862
-0.862049	0.166775
-0.922052	-0.532607
-0.872098	0.154302
-0.932044	-0.537253
-0.882124	0.16213
-0.942096	-0.531398
-0.892092	0.156657
-0.952099	-0.53668
-0.902111	0.161748
-0.96206	-0.532862
-0.91206	0.162575
-0.972037	-0.530253
-0.922071	0.15863
-0.982059	-0.53248
-0.932086	0.155066
-0.9921	-0.536234
-0.942043	0.163657
-1.00204	-0.524843
-0.95205	0.171803
-1.01205	-0.52548
-0.962102	0.16843
-1.02206	-0.531525
-0.97214	0.173394
-1.03206	-0.52287
-0.982017	0.162702
-1.04207	-0.524398
-0.992024	0.16563
-1.05206	-0.532862
-1.00203	0.160666
-1.06206	-0.529871
-1.01207	0.164039
-1.07202	-0.540371
-1.02204	0.159075
-1.08207	-0.54298
-1.03201	0.163848
-1.09209	-0.552844
-1.04206	0.165248
-1.10208	-0.557044
-1.05205	0.160412
-1.11198	-0.564235
-1.06203	0.158693
-1.12212	-0.573781
-1.07206	0.156848