File: VFSWV_data_prep/Example_data/CoPc(OMe)8_VFSWV_txt_data/CoPc(OMe)8_CNT_VFSWV_scans_31_30_C02.txt
Ewe/V	<I>/mA
-0.122083	-0.028339
-0.0720338	0.0515395
-0.132075	-0.060489
-0.0821018	0.0331354
-0.14207	-0.0627036
-0.0921277	0.0406956
-0.152077	-0.0603362
-0.102104	0.03787
-0.162107	-0.0669037
-0.112073	0.0404665
-0.172057	-0.0713329
-0.122083	0.0329826
-0.182075	-0.0759148
-0.132079	0.0375646
-0.192021	-0.079504
-0.142101	0.0345863
-0.202062	-0.0783585
-0.152138	0.0359609
-0.212076	-0.0816423
-0.162065	0.0336699
-0.222079	-0.0833987
-0.172068	0.0380991
-0.232063	-0.0872933
-0.182063	0.0417647
-0.242074	-0.0930971
-0.192074	0.0419174
-0.252016	-0.101879
-0.202008	0.0329826
-0.262031	-0.100046
-0.212076	0.0414592
-0.272022	-0.107454
-0.222068	0.0329063
-0.282136	-0.108294
-0.23206	0.0376409
-0.29215	-0.11677
-0.242089	0.0413829
-0.302157	-0.121811
-0.252035	0.0395501
-0.312126	-0.123796
-0.262111	0.0426811
-0.32216	-0.125782
-0.272037	0.0380228
-0.332128	-0.131815
-0.282147	0.0360373
-0.342154	-0.146095
-0.292166	0.039321
-0.352131	-0.142048
-0.302115	0.040161
-0.362072	-0.143651
-0.312164	0.0375646
-0.372102	-0.141666
-0.322175	0.041001
-0.382109	-0.149837
-0.332155	0.0470339
-0.392078	-0.148615
-0.342108	0.0474157
-0.402165	-0.152357
-0.352108	0.047263
-0.412095	-0.159077
-0.362137	0.0494776
-0.422106	-0.164499
-0.372091	0.0489431
-0.43204	-0.172441
-0.382086	0.0470339
-0.442089	-0.176641
-0.392097	0.0467285
-0.452073	-0.181605
-0.402176	0.0497831
-0.462114	-0.190158
-0.412122	0.0545941
-0.472071	-0.196267
-0.422053	0.0528377
-0.482078	-0.208715
-0.432067	0.0636816
-0.492058	-0.216275
-0.442078	0.0590997
-0.502123	-0.232846
-0.452149	0.0639871
-0.512068	-0.250487
-0.46211	0.0704018
-0.522083	-0.280422
-0.47211	0.0730746
-0.532075	-0.313107
-0.482101	0.0880423
-0.542055	-0.362286
-0.492059	0.110188
-0.552054	-0.422233
-0.50205	0.127294
-0.56208	-0.501348
-0.51203	0.154251
-0.572052	-0.600318
-0.522052	0.20282
-0.582063	-0.717692
-0.532075	0.260476
-0.592055	-0.850568
-0.54207	0.345089
-0.60205	-0.993983
-0.552077	0.445357
-0.612057	-1.13931
-0.562072	0.562197
-0.622014	-1.28853
-0.572052	0.690186
-0.632025	-1.41216
-0.582094	0.821535
-0.64202	-1.52633
-0.592078	0.931959
-0.651993	-1.61965
-0.602035	1.03253
-0.662011	-1.66646
-0.612011	1.10989
-0.672083	-1.687
-0.622045	1.16045
-0.682017	-1.67455
-0.631994	1.16342
-0.692035	-1.61995
-0.642066	1.15174
-0.702046	-1.53992
-0.65205	1.11768
-0.712129	-1.44721
-0.662003	1.07087
-0.722083	-1.34038
-0.671976	0.99351
-0.732116	-1.22682
-0.682025	0.908821
-0.7421	-1.1209
-0.691978	0.82688
-0.752073	-1.01117
-0.702145	0.735623
-0.762167	-0.924719
-0.71211	0.649177
-0.772087	-0.857976
-0.722117	0.571437
-0.782078	-0.791003
-0.73212	0.502479
-0.792089	-0.738005
-0.742077	0.450397
-0.802073	-0.700968
-0.752138	0.401829
-0.812076	-0.668894
-0.762118	0.361355
-0.822094	-0.641937
-0.772136	0.317139
-0.832089	-0.62422
-0.782059	0.297055
-0.842062	-0.612995
-0.792089	0.271778
-0.852054	-0.614217
-0.802057	0.25597
-0.862068	-0.599478
-0.812091	0.239323
-0.872056	-0.601005
-0.822071	0.229472
-0.882074	-0.603984
-0.832112	0.221682
-0.892081	-0.609482
-0.842093	0.212977
-0.902046	-0.602838
-0.85208	0.213358
-0.912049	-0.61078
-0.862141	0.20282
-0.922041	-0.611926
-0.872136	0.205875
-0.932086	-0.6175
-0.882025	0.199307
-0.94207	-0.61498
-0.892112	0.197016
-0.952111	-0.616584
-0.902042	0.199689
-0.962053	-0.617806
-0.912102	0.204882
-0.972075	-0.617348
-0.922075	0.202285
-0.982059	-0.610551
-0.93207	0.211755
-0.992058	-0.621395
-0.942112	0.210456
-1.00208	-0.611162
-0.952065	0.209693
-1.01207	-0.615591
-0.962037	0.205645
-1.02203	-0.614446
-0.972102	0.209846
-1.03205	-0.617729
-0.982059	0.202973
-1.04207	-0.616049
-0.992039	0.203049
-1.05209	-0.614522
-1.00205	0.207249
-1.06209	-0.614446
-1.0121	0.205035
-1.07211	-0.624373
-1.02206	0.208089
-1.08209	-0.629261
-1.03202	0.20954
-1.09207	-0.631933
-1.04204	0.212442
-1.10204	-0.64209
-1.05208	0.204958
-1.11207	-0.653621
-1.06206	0.203354
-1.12216	-0.666374
-1.07203	0.202973