File: VFSWV_data_prep/Example_data/CoPc(OMe)8_VFSWV_txt_data/CoPc(OMe)8_CNT_VFSWV_scans_60_59_C02.txt
Ewe/V	<I>/mA
-0.122034	0.0125166
-0.0720606	0.0120393
-0.132083	0.00334214
-0.0820635	0.00986505
-0.142055	-0.00332925
-0.0920934	0.00508158
-0.152043	-0.0020777
-0.10207	0.0104802
-0.16208	-0.00678692
-0.112038	0.00199514
-0.172049	-0.0065854
-0.122038	0.00609979
-0.182022	-0.00703086
-0.132037	0.00132694
-0.192028	-0.00796422
-0.142044	0.00156028
-0.20205	-0.00505808
-0.152066	0.00464672
-0.212004	-0.00773088
-0.162031	0.00153906
-0.222015	-0.0094279
-0.172049	0.00152846
-0.232048	-0.0133522
-0.182063	0.0039467
-0.242036	-0.0100537
-0.192044	0.00646041
-0.252031	-0.0132144
-0.201982	0.00258909
-0.262034	-0.0158553
-0.212023	-0.0007413
-0.272045	-0.0117931
-0.221988	0.000754195
-0.282128	-0.0124719
-0.232044	0.00306638
-0.29207	-0.0165872
-0.242051	0.000764802
-0.3021	-0.0144765
-0.252008	-0.00228983
-0.312084	-0.0149432
-0.261996	-0.000529172
-0.322133	-0.0150705
-0.272037	0.0025997
-0.332059	-0.0116764
-0.28209	0.00154967
-0.342051	-0.0116764
-0.29212	0.0010936
-0.352123	-0.00422018
-0.302127	0.00281183
-0.362118	-0.00968245
-0.312126	0.00402095
-0.372102	-0.0137977
-0.322133	0.00263152
-0.382075	-0.0107961
-0.332082	0.00406337
-0.392143	-0.0152084
-0.342089	0.00549523
-0.402085	-0.0147629
-0.352115	0.000287516
-0.412069	-0.00803847
-0.362072	0.00329972
-0.422072	-0.0144023
-0.372091	0.00117845
-0.432101	-0.0122916
-0.382098	0.00116784
-0.44212	-0.0116977
-0.392078	0.00607858
-0.452077	-0.010531
-0.402081	0.00316184
-0.462065	-0.00830362
-0.41208	0.00583463
-0.472075	-0.0128644
-0.422083	0.00793469
-0.482139	-0.0137023
-0.432052	0.00722407
-0.492055	-0.0163008
-0.44207	0.00384064
-0.502062	-0.0147311
-0.452062	0.00695891
-0.512072	-0.0118886
-0.462084	0.005771
-0.52206	-0.0156008
-0.472052	0.00712861
-0.532052	-0.0154417
-0.482048	0.00509219
-0.542085	-0.013575
-0.492066	0.00286486
-0.552065	-0.0168099
-0.502104	0.00650283
-0.561996	-0.0169266
-0.512072	0.00758468
-0.571999	-0.0143492
-0.522022	0.0137151
-0.582078	-0.0195357
-0.532063	0.0126227
-0.592016	-0.0201085
-0.542066	0.0051134
-0.602023	-0.0216888
-0.55205	0.0149561
-0.612007	-0.0214237
-0.561981	0.0116681
-0.622006	-0.0222828
-0.57201	0.00754226
-0.632013	-0.0246692
-0.581994	0.0120818
-0.642108	-0.0289966
-0.592036	0.0148394
-0.651996	-0.0276708
-0.60205	0.0139485
-0.662015	-0.0299194
-0.612045	0.0141288
-0.672018	-0.03273
-0.622041	0.0185304
-0.68199	-0.0307148
-0.632017	0.0100029
-0.691993	-0.0335255
-0.641982	0.0099605
-0.702	-0.0342361
-0.651985	0.0127924
-0.712106	-0.0354134
-0.662022	0.0149455
-0.722121	-0.0310436
-0.672033	0.0123363
-0.732086	-0.0352968
-0.682044	0.0159955
-0.742142	-0.0359862
-0.691974	0.0157197
-0.75208	-0.0361135
-0.702069	0.015094
-0.762076	-0.0339498
-0.712137	0.0115515
-0.77209	-0.0410984
-0.722087	0.00980141
-0.782132	-0.036071
-0.732051	0.0190289
-0.792108	-0.0412045
-0.742081	0.00936655
-0.802134	-0.0404196
-0.752092	0.0105969
-0.812091	-0.0400378
-0.762114	0.00772256
-0.82209	-0.0381393
-0.772102	0.0139061
-0.832097	-0.0413742
-0.782086	0.0091226
-0.842154	-0.0368983
-0.792096	0.0106181
-0.852073	-0.0390196
-0.802096	0.0089529
-0.862099	-0.0359438
-0.812049	0.0187001
-0.872086	-0.0293254
-0.822079	0.0179047
-0.882105	-0.0360604
-0.832093	0.011106
-0.892089	-0.0368559
-0.842073	0.0120606
-0.902034	-0.0287845
-0.852107	0.0173743
-0.91203	-0.0301951
-0.862068	0.0187426
-0.922071	-0.0354028
-0.872052	0.0128242
-0.932047	-0.032921
-0.882055	0.0118378
-0.942062	-0.0332816
-0.892073	0.0139909
-0.952046	-0.0365271
-0.902042	0.0120181
-0.962037	-0.040303
-0.91206	0.0127818
-0.972086	-0.0356574
-0.92206	0.00998172
-0.982066	-0.0376302
-0.932032	0.00936655
-0.992043	-0.0418515
-0.94205	0.0149879
-1.00202	-0.0366014
-0.952053	0.0119651
-1.01209	-0.0323058
-0.962068	0.0130894
-1.02204	-0.0374923
-0.972037	0.0101514
-1.03197	-0.0410454
-0.982059	0.0143409
-1.04203	-0.0380226
-0.992027	0.00948322
-1.05206	-0.036071
-1.00206	0.0105226
-1.06201	-0.0373544
-1.01205	0.0123681
-1.07205	-0.0386272
-1.02202	0.0156773
-1.082	-0.0408545
-1.03207	0.0127818
-1.09208	-0.0432197
-1.04205	0.0136091
-1.10207	-0.0397514
-1.05203	0.0150622
-1.11204	-0.0420106
-1.06203	0.0129727
-1.12209	-0.0480668
-1.07204	0.0111166