File: VFSWV_data_prep/Example_data/CoPc(OMe)8_VFSWV_txt_data/CoPc(OMe)8_CNT_VFSWV_scans_48_47_C02.txt
Ewe/V	<I>/mA
-0.122099	-0.0054293
-0.0720567	0.0310035
-0.132052	0.000870865
-0.0821094	0.0262306
-0.142089	-0.00695662
-0.0920857	0.0249897
-0.152062	-0.00215194
-0.102077	0.0244806
-0.162046	-0.00527021
-0.112073	0.0282671
-0.172045	-0.00600205
-0.122061	0.023176
-0.182006	-0.00565204
-0.132086	0.0214578
-0.192021	-0.0103294
-0.142093	0.0240988
-0.202001	-0.0131613
-0.152085	0.0214578
-0.212027	-0.015325
-0.162057	0.0176077
-0.222034	-0.0187615
-0.172034	0.0190395
-0.232002	-0.013925
-0.182025	0.021076
-0.242051	-0.0196524
-0.192013	0.0203759
-0.251986	-0.0188888
-0.202047	0.0208214
-0.261981	-0.0170751
-0.212015	0.0190714
-0.271992	-0.0222934
-0.22203	0.0206305
-0.282079	-0.0282754
-0.232014	0.0209487
-0.292147	-0.024298
-0.241975	0.0237806
-0.302077	-0.0289118
-0.252043	0.0171622
-0.312092	-0.0248707
-0.262042	0.0179895
-0.322095	-0.0249344
-0.27198	0.0176395
-0.332136	-0.02958
-0.282117	0.0184668
-0.342043	-0.0284345
-0.292131	0.0172577
-0.352089	-0.0333982
-0.302104	0.0188168
-0.362111	-0.0278299
-0.312095	0.0187532
-0.372095	-0.0308845
-0.32214	0.0183395
-0.38209	-0.0335255
-0.332056	0.0203441
-0.392085	-0.0335573
-0.342043	0.0179259
-0.402081	-0.0370892
-0.3521	0.0226669
-0.412118	-0.037662
-0.362069	0.0194532
-0.422033	-0.0378847
-0.372095	0.0277898
-0.43209	-0.0404621
-0.382056	0.0225078
-0.442047	-0.0428485
-0.392123	0.0204078
-0.452058	-0.0429121
-0.402096	0.0169713
-0.462057	-0.0415439
-0.412084	0.0180213
-0.472037	-0.0447895
-0.422068	0.0216805
-0.482052	-0.0418939
-0.43214	0.0213305
-0.492039	-0.0499441
-0.442062	0.0199941
-0.502035	-0.0527124
-0.452096	0.0236851
-0.512019	-0.0522351
-0.462088	0.0142349
-0.522087	-0.0573898
-0.472049	0.0159213
-0.532044	-0.0615581
-0.482025	0.0231442
-0.54207	-0.0546534
-0.492043	0.0308762
-0.552077	-0.0620672
-0.502065	0.0250533
-0.562053	-0.0682719
-0.512038	0.0272488
-0.572056	-0.0738402
-0.522052	0.0303989
-0.582044	-0.0860587
-0.532078	0.0256579
-0.592036	-0.0952226
-0.542055	0.0289989
-0.602069	-0.102986
-0.552058	0.0395946
-0.612072	-0.109859
-0.562026	0.0328808
-0.622014	-0.118419
-0.572094	0.0392128
-0.632029	-0.139483
-0.582052	0.0489494
-0.642047	-0.144415
-0.592066	0.0545814
-0.652046	-0.152147
-0.60205	0.0622498
-0.661984	-0.165447
-0.612034	0.0698545
-0.672014	-0.159815
-0.622029	0.0790821
-0.681971	-0.156602
-0.632044	0.080323
-0.692001	-0.156952
-0.642043	0.0830594
-0.701981	-0.153611
-0.652027	0.0792411
-0.712091	-0.151351
-0.662045	0.0803866
-0.722155	-0.151924
-0.672048	0.0752638
-0.73212	-0.145338
-0.682082	0.0752638
-0.742089	-0.143778
-0.691971	0.0615179
-0.752141	-0.140978
-0.702107	0.0596724
-0.762114	-0.140247
-0.712125	0.0543905
-0.772064	-0.137001
-0.722113	0.0539132
-0.782059	-0.133374
-0.732097	0.0487585
-0.792073	-0.130733
-0.742058	0.0431902
-0.80205	-0.134646
-0.752096	0.0426174
-0.81203	-0.133278
-0.762099	0.0424902
-0.822125	-0.129874
-0.77209	0.0396583
-0.832074	-0.13191
-0.782078	0.0370491
-0.842089	-0.134265
-0.792032	0.0366673
-0.852118	-0.137319
-0.802065	0.0378128
-0.862026	-0.137542
-0.81206	0.029158
-0.872086	-0.138401
-0.822071	0.0306535
-0.882112	-0.144128
-0.832055	0.0342172
-0.892081	-0.142092
-0.84207	0.0303035
-0.902038	-0.142315
-0.852092	0.0306217
-0.91206	-0.141201
-0.862076	0.0332945
-0.922083	-0.141169
-0.872052	0.0312262
-0.932047	-0.133501
-0.882063	0.0339308
-0.942066	-0.13891
-0.892085	0.0343763
-0.952099	-0.138274
-0.902023	0.0308444
-0.962057	-0.137828
-0.912064	0.0314171
-0.972021	-0.137669
-0.922075	0.0346627
-0.982036	-0.139356
-0.932028	0.0240669
-0.992028	-0.135919
-0.942028	0.0319581
-1.00206	-0.140278
-0.952061	0.0356173
-1.01206	-0.135601
-0.961995	0.0299216
-1.02201	-0.144224
-0.97206	0.0334217
-1.03205	-0.142728
-0.982097	0.0356491
-1.04202	-0.140087
-0.992016	0.0319581
-1.05204	-0.145051
-1.00204	0.0270898
-1.06206	-0.148201
-1.01208	0.0299853
-1.07197	-0.150556
-1.02202	0.0312899
-1.08203	-0.146674
-1.032	0.0316081
-1.09205	-0.150588
-1.042	0.0310671
-1.10203	-0.157588
-1.05205	0.0263579
-1.11197	-0.154215
-1.06205	0.0248624
-1.12211	-0.16357
-1.07202	0.0275034