File: VFSWV_data_prep/Example_data/CoPc(OMe)8_VFSWV_txt_data/CoPc(OMe)8_CNT_VFSWV_scans_71_70_C02.txt
Ewe/V	<I>/mA
-0.122041	0.013525
-0.07203	0.0136854
-0.132044	0.00855546
-0.0820636	0.0134211
-0.14204	0.0129718
-0.0920361	0.010632
-0.152008	0.0101687
-0.102009	0.0131731
-0.161996	0.0101708
-0.112042	0.0140988
-0.172026	0.0097945
-0.122053	0.0122003
-0.182044	0.00858378
-0.132006	0.0110743
-0.192021	0.00879189
-0.142028	0.0149641
-0.201997	0.0118928
-0.152009	0.0151214
-0.212015	0.0159928
-0.162031	0.0188754
-0.222011	0.0131397
-0.171988	0.0167815
-0.23201	0.0180023
-0.182025	0.0132894
-0.24204	0.0115936
-0.191994	0.0124726
-0.25202	0.00986379
-0.202028	0.0191283
-0.262015	0.0112766
-0.212038	0.017226
-0.272011	0.0114361
-0.221995	0.0152177
-0.28209	0.0117327
-0.232044	0.015306
-0.292105	0.00849805
-0.24199	0.0144123
-0.302134	0.0120913
-0.251993	0.0139246
-0.312061	0.00760367
-0.261981	0.0193799
-0.322068	0.0144397
-0.271976	0.0191149
-0.332048	0.0187745
-0.282113	0.020204
-0.342074	0.0128769
-0.292108	0.0192459
-0.352039	0.017246
-0.302069	0.0204731
-0.362057	0.0208458
-0.312095	0.0179975
-0.372098	0.0169165
-0.322098	0.0191986
-0.382071	0.0140141
-0.332056	0.0204116
-0.392032	0.0128436
-0.342127	0.016568
-0.402058	0.0144495
-0.352066	0.0189293
-0.412069	0.0175578
-0.362057	0.0187376
-0.421999	0.0157396
-0.372095	0.0174778
-0.43204	0.0150261
-0.382101	0.0137779
-0.442051	0.00838679
-0.392051	0.0118149
-0.452062	0.00639648
-0.402111	0.0137096
-0.462034	0.010632
-0.412038	0.0195433
-0.472079	0.0122842
-0.422087	0.0183831
-0.482017	0.00941217
-0.432098	0.0155717
-0.492066	0.0108338
-0.442062	0.010765
-0.502058	0.0101055
-0.452069	0.0138555
-0.512042	0.00856001
-0.462069	0.0198844
-0.522037	0.0301589
-0.472049	0.0358602
-0.531998	0.0279306
-0.482071	0.0408506
-0.542055	0.0360575
-0.492081	0.0352344
-0.551993	0.0305657
-0.502027	0.0322417
-0.562026	0.0279265
-0.512046	0.0311852
-0.57201	0.0281455
-0.522003	0.0314131
-0.581975	0.0278239
-0.532013	0.0328028
-0.591986	0.0280335
-0.542066	0.0336426
-0.602004	0.02942
-0.552023	0.0361806
-0.612026	0.024728
-0.561977	0.0314477
-0.622026	0.0251518
-0.572003	0.0336014
-0.632013	0.0277111
-0.581998	0.0407906
-0.64202	0.0261026
-0.592089	0.0365
-0.651951	0.0348607
-0.602042	0.035198
-0.662007	0.0178941
-0.612023	0.0282348
-0.671991	0.0219655
-0.622006	0.0281018
-0.682029	0.0198813
-0.632032	0.030193
-0.691955	0.0201127
-0.642001	0.031035
-0.702008	0.0185149
-0.652039	0.0283182
-0.712076	0.017208
-0.661988	0.0298954
-0.722098	0.0181591
-0.672018	0.0266673
-0.732071	0.0176554
-0.682029	0.0213738
-0.742043	0.012773
-0.691951	0.0231582
-0.752061	0.0120743
-0.702061	0.0241515
-0.762068	0.0125674
-0.712095	0.0223607
-0.77209	0.0104254
-0.722102	0.0232164
-0.782063	0.0142546
-0.73209	0.0198672
-0.792024	0.0102671
-0.74207	0.0232457
-0.802031	0.0121884
-0.752088	0.0241738
-0.812072	0.013239
-0.762099	0.0211328
-0.822071	0.0134795
-0.772087	0.0238526
-0.832082	0.0144536
-0.782093	0.02382
-0.842058	0.0129417
-0.792074	0.0229797
-0.852069	0.013632
-0.801973	0.0242006
-0.862034	0.0147813
-0.812087	0.0239479
-0.872098	0.0124026
-0.822044	0.0248198
-0.882059	0.0131167
-0.832059	0.0225951
-0.892073	0.0137984
-0.842093	0.025672
-0.902061	0.0141676
-0.852042	0.0263653
-0.912064	0.0105996
-0.862057	0.0231362
-0.922098	0.010017
-0.872128	0.0223716
-0.932074	0.0111428
-0.882063	0.0208331
-0.942028	0.0103366
-0.892131	0.0213626
-0.952019	0.00978843
-0.902065	0.0206018
-0.961984	0.00728531
-0.91206	0.0204498
-0.972025	0.0105225
-0.922098	0.015885
-0.982028	0.00757105
-0.932067	0.0220838
-0.992054	0.00839286
-0.942081	0.0184911
-1.002	0.0121583
-0.952023	0.0211715
-1.01207	0.00510914
-0.962076	0.0237995
-1.02201	0.0086963
-0.972071	0.0220123
-1.03204	0.0115039
-0.982043	0.0237315
-1.04201	0.0111709
-0.992058	0.0198019
-1.05203	0.00954998
-1.00201	0.0236415
-1.06205	0.00985165
-1.01201	0.0217103
-1.07195	0.00896232
-1.02204	0.0244269
-1.08204	0.00793897
-1.03198	0.0183244
-1.09204	0.00559843
-1.04207	0.0179593
-1.10198	0.00331252
-1.05203	0.0190428
-1.112	0.0019387
-1.06206	0.0149881
-1.12207	0.00468028
-1.07204	0.014889