File: VFSWV_data_prep/Example_data/CoPc(OMe)8_VFSWV_txt_data/CoPc(OMe)8_CNT_VFSWV_scans_25_24_C02.txt
Ewe/V	<I>/mA
-0.122068	-0.0405575
-0.0721445	0.113701
-0.132071	-0.107473
-0.0821132	0.104824
-0.142067	-0.109382
-0.0920857	0.100051
-0.1521	-0.119691
-0.102096	0.0932733
-0.16205	-0.115587
-0.112038	0.0979507
-0.172072	-0.129428
-0.122064	0.0964234
-0.182125	-0.140406
-0.132106	0.0956598
-0.192055	-0.13611
-0.142089	0.090696
-0.202027	-0.141169
-0.152066	0.0938461
-0.212038	-0.152529
-0.162061	0.0983326
-0.222064	-0.157397
-0.172083	0.0968053
-0.232044	-0.167611
-0.182098	0.0925097
-0.24207	-0.170761
-0.192047	0.0990962
-0.252031	-0.182693
-0.202028	0.0965189
-0.262095	-0.191475
-0.212054	0.106065
-0.272034	-0.195866
-0.222057	0.109406
-0.282147	-0.202453
-0.232014	0.112938
-0.292116	-0.212858
-0.242044	0.107306
-0.302115	-0.224981
-0.25205	0.109501
-0.312153	-0.219826
-0.262096	0.114942
-0.32214	-0.227272
-0.272072	0.118569
-0.332098	-0.235672
-0.282166	0.114178
-0.342085	-0.247413
-0.29212	0.119619
-0.352134	-0.251231
-0.302088	0.123247
-0.362099	-0.26345
-0.312111	0.126206
-0.372121	-0.26765
-0.322148	0.12382
-0.382136	-0.278246
-0.332109	0.128879
-0.392093	-0.285978
-0.342112	0.128592
-0.402104	-0.29791
-0.352096	0.136897
-0.412057	-0.300869
-0.362126	0.139856
-0.422125	-0.308124
-0.372087	0.144534
-0.432098	-0.324447
-0.382101	0.143197
-0.442097	-0.334184
-0.392089	0.152839
-0.452077	-0.354039
-0.4021	0.157516
-0.462053	-0.363584
-0.412088	0.163721
-0.472098	-0.392794
-0.422064	0.172407
-0.482078	-0.41179
-0.432098	0.182621
-0.492074	-0.445105
-0.442066	0.198181
-0.502069	-0.495888
-0.452065	0.208681
-0.512061	-0.535407
-0.46208	0.228059
-0.522083	-0.606905
-0.472072	0.258891
-0.532071	-0.692339
-0.48212	0.288388
-0.542058	-0.7919
-0.492123	0.33268
-0.55205	-0.930504
-0.502062	0.407614
-0.562084	-1.0923
-0.512046	0.496102
-0.572075	-1.27615
-0.522041	0.61151
-0.582094	-1.47566
-0.532063	0.758323
-0.592047	-1.71029
-0.542062	0.931005
-0.602039	-1.95132
-0.552046	1.11839
-0.612045	-2.17565
-0.562053	1.31026
-0.622056	-2.39291
-0.572102	1.50069
-0.632032	-2.5821
-0.582063	1.67347
-0.642035	-2.75593
-0.592043	1.81656
-0.652	-2.88155
-0.602058	1.92061
-0.662023	-2.96326
-0.612042	1.9964
-0.672071	-3.0108
-0.622052	2.04375
-0.682044	-3.0024
-0.632082	2.05062
-0.692005	-2.95171
-0.642047	2.0216
-0.702004	-2.85769
-0.652069	1.9797
-0.71216	-2.73989
-0.662007	1.90457
-0.722121	-2.58592
-0.672018	1.81866
-0.732112	-2.42278
-0.682013	1.71051
-0.742074	-2.246
-0.691993	1.58317
-0.752138	-2.07484
-0.702096	1.46041
-0.762103	-1.90159
-0.712106	1.33307
-0.772117	-1.76251
-0.722136	1.20831
-0.782063	-1.6386
-0.732086	1.09576
-0.792066	-1.52492
-0.742081	0.995343
-0.802065	-1.43757
-0.752077	0.911723
-0.812118	-1.36159
-0.762061	0.826288
-0.822098	-1.29983
-0.772052	0.760328
-0.832112	-1.25611
-0.782147	0.707826
-0.842054	-1.21831
-0.792051	0.664298
-0.852099	-1.19272
-0.802111	0.627738
-0.862106	-1.16867
-0.812057	0.601582
-0.872083	-1.16218
-0.822109	0.576
-0.882147	-1.15359
-0.832074	0.55624
-0.892028	-1.14843
-0.84207	0.545167
-0.902096	-1.15196
-0.852088	0.529226
-0.912083	-1.15435
-0.862083	0.529608
-0.922056	-1.15464
-0.87206	0.518821
-0.932086	-1.15731
-0.882089	0.514907
-0.942104	-1.15941
-0.892115	0.517103
-0.952141	-1.1618
-0.902092	0.51023
-0.962057	-1.16456
-0.912076	0.520062
-0.972048	-1.17306
-0.922037	0.513762
-0.98212	-1.17163
-0.932093	0.515194
-0.992066	-1.16628
-0.942062	0.518153
-1.00205	-1.17297
-0.952076	0.528367
-1.01208	-1.16161
-0.962003	0.521017
-1.02201	-1.17373
-0.972025	0.52894
-1.03198	-1.16705
-0.981979	0.523785
-1.04201	-1.16991
-0.992012	0.53104
-1.05205	-1.17287
-1.00205	0.52178
-1.06206	-1.17363
-1.01205	0.52894
-1.07203	-1.17955
-1.02204	0.520539
-1.08204	-1.17411
-1.03203	0.528462
-1.092	-1.189
-1.04201	0.529226
-1.10212	-1.20284
-1.05208	0.524739
-1.11196	-1.21
-1.06204	0.531517
-1.12213	-1.22766
-1.07195	0.530467