File: VFSWV_data_prep/Example_data/CoPc(OMe)8_VFSWV_txt_data/CoPc(OMe)8_CNT_VFSWV_scans_01_0_C02.txt
Ewe/V	<I>/mA
-0.12171	-5.78431
-0.0717563	6.49024
-0.13166	-7.25864
-0.0817518	4.95529
-0.141587	-8.18419
-0.091835	4.36307
-0.151731	-8.55457
-0.101819	4.13932
-0.16165	-8.68935
-0.111864	4.0431
-0.171688	-8.76495
-0.121806	3.97971
-0.18166	-8.8123
-0.131782	3.9591
-0.191732	-8.84781
-0.141739	3.93733
-0.201689	-8.88027
-0.151704	3.90831
-0.211711	-8.91883
-0.161849	3.88731
-0.221718	-8.95587
-0.171775	3.86211
-0.23161	-8.98565
-0.181752	3.83767
-0.241705	-9.03376
-0.191797	3.81515
-0.251708	-9.075
-0.201819	3.79224
-0.26165	-9.12922
-0.211814	3.75596
-0.271775	-9.17809
-0.221787	3.72733
-0.281763	-9.24033
-0.231679	3.69754
-0.291682	-9.2789
-0.241739	3.67349
-0.301739	-9.3293
-0.251716	3.64752
-0.311784	-9.37053
-0.261757	3.60934
-0.321829	-9.40604
-0.27179	3.58338
-0.331843	-9.44194
-0.281851	3.52381
-0.341785	-9.47554
-0.291793	3.49326
-0.351727	-9.51334
-0.301807	3.46997
-0.361699	-9.54847
-0.311799	3.45355
-0.371756	-9.57672
-0.321752	3.42224
-0.381782	-9.62407
-0.33174	3.38673
-0.391732	-9.66836
-0.341812	3.35352
-0.401845	-9.7096
-0.351822	3.3287
-0.411806	-9.74778
-0.361806	3.30082
-0.421725	-9.80467
-0.371855	3.25729
-0.431763	-9.86233
-0.381767	3.21568
-0.441739	-9.91922
-0.391743	3.16336
-0.451765	-10.0017
-0.401811	3.12556
-0.46176	-10.0681
-0.411696	3.07784
-0.47176	-10.1361
-0.42187	3.02896
-0.481725	-10.217
-0.43179	2.97818
-0.491819	-10.3091
-0.441777	2.92396
-0.501746	-10.4061
-0.451731	2.87585
-0.511795	-10.4985
-0.461703	2.80559
-0.521714	-10.6393
-0.471718	2.74144
-0.531721	-10.7848
-0.481744	2.63606
-0.541777	-10.9692
-0.491728	2.52838
-0.551696	-11.1819
-0.501666	2.38711
-0.561646	-11.4229
-0.51165	2.21987
-0.571737	-11.7142
-0.521702	2.02208
-0.58174	-12.0147
-0.531751	1.78726
-0.591716	-12.3671
-0.541667	1.52876
-0.601738	-12.7478
-0.551708	1.21795
-0.611619	-13.148
-0.56168	0.891486
-0.621718	-13.5676
-0.571698	0.539058
-0.631728	-14.0002
-0.581652	0.183576
-0.641727	-14.4573
-0.591758	-0.204744
-0.65178	-14.8956
-0.601673	-0.596881
-0.661676	-15.3362
-0.611711	-0.982146
-0.671687	-15.7643
-0.621714	-1.37467
-0.681743	-16.1797
-0.631724	-1.74275
-0.691731	-16.5703
-0.64167	-2.0883
-0.701669	-16.9052
-0.651727	-2.38384
-0.711756	-17.2297
-0.661711	-2.65341
-0.721744	-17.4718
-0.671698	-2.87907
-0.731717	-17.6596
-0.681709	-3.04707
-0.741792	-17.7746
-0.691746	-3.1452
-0.751814	-17.8204
-0.701818	-3.19446
-0.76184	-17.7845
-0.711733	-3.15742
-0.771767	-17.6596
-0.721847	-3.05357
-0.781759	-17.4764
-0.731793	-2.8806
-0.791765	-17.2293
-0.741743	-2.66716
-0.801654	-16.9258
-0.751734	-2.40751
-0.811714	-16.6131
-0.761829	-2.13183
-0.821714	-16.2694
-0.771744	-1.86952
-0.831743	-15.9407
-0.781759	-1.58964
-0.841758	-15.639
-0.7918	-1.34985
-0.851719	-15.3549
-0.801795	-1.14022
-0.861733	-15.1102
-0.811794	-0.963055
-0.871721	-14.9105
-0.821817	-0.833233
-0.881755	-14.7684
-0.831755	-0.746558
-0.891727	-14.6669
-0.841788	-0.670574
-0.901784	-14.5817
-0.851788	-0.620937
-0.911779	-14.5099
-0.861844	-0.580463
-0.921832	-14.4641
-0.871729	-0.553353
-0.93169	-14.434
-0.88169	-0.541898
-0.941616	-14.4252
-0.891781	-0.538462
-0.951719	-14.4225
-0.901837	-0.559462
-0.961714	-14.4301
-0.911836	-0.573972
-0.971679	-14.4469
-0.921782	-0.605664
-0.981732	-14.4771
-0.931789	-0.631246
-0.991635	-14.5199
-0.941731	-0.683938
-1.00168	-14.5607
-0.951711	-0.723649
-1.01164	-14.6169
-0.961894	-0.787796
-1.02163	-14.6799
-0.971744	-0.854234
-1.03167	-14.7536
-0.98169	-0.920672
-1.04165	-14.823
-0.991666	-0.982146
-1.0516	-14.8796
-1.00183	-1.02911
-1.06162	-14.9349
-1.0118	-1.08409
-1.07171	-14.9781
-1.02174	-1.10815
-1.08165	-15.017
-1.03167	-1.13946
-1.09161	-15.0227
-1.04176	-1.14175
-1.10176	-15.0254
-1.05179	-1.14175
-1.11171	-15.0201
-1.06174	-1.13641
-1.12165	-15.033
-1.0718	-1.13316