File: VFSWV_data_prep/Example_data/CoPc(OMe)8_VFSWV_txt_data/CoPc(OMe)8_CNT_VFSWV_scans_56_55_C02.txt
Ewe/V	<I>/mA
-0.122057	-0.00161102
-0.0720797	0.00979978
-0.132029	-0.000920792
-0.0820712	0.00771441
-0.142055	-9.8392e-05
-0.0920896	0.00784658
-0.152043	-0.00776433
-0.102081	0.00631926
-0.162015	-0.00866016
-0.112077	0.00238349
-0.172022	-0.00937976
-0.122053	0.00398424
-0.182025	-0.0102315
-0.132048	0.00648081
-0.19204	-0.0166492
-0.142093	0.00809623
-0.202062	-0.00644262
-0.15207	0.00620178
-0.212054	-0.00842519
-0.162042	0.00480663
-0.222007	-0.00970285
-0.172003	0.00251566
-0.232025	-0.0147107
-0.182063	0.00369052
-0.242051	-0.016282
-0.192028	0.00767035
-0.252035	-0.0166492
-0.202035	0.00339681
-0.262065	-0.0165023
-0.212073	0.00323526
-0.272041	-0.0174422
-0.222049	0.000591837
-0.282124	-0.0203794
-0.232029	0.00535001
-0.292128	-0.0200416
-0.242021	0.00116458
-0.302134	-0.0208493
-0.252001	-3.96491e-05
-0.312118	-0.0187639
-0.262031	0.000738694
-0.322167	-0.0163848
-0.272037	0.00176669
-0.332071	-0.0181178
-0.282109	0.00257441
-0.34212	-0.0178387
-0.292135	-0.000538963
-0.35213	-0.0195276
-0.302108	0.00255972
-0.362095	-0.0152834
-0.312156	0.00449823
-0.372083	-0.0160618
-0.322175	0.00480663
-0.382132	-0.0153715
-0.332079	-0.00118513
-0.392085	-0.0216717
-0.342104	0.00263315
-0.402081	-0.0252991
-0.352077	0.000621208
-0.412034	-0.0242564
-0.362057	0.00366115
-0.422075	-0.0222151
-0.372125	0.00360241
-0.432101	-0.0183821
-0.382094	0.00376395
-0.442074	-0.0284418
-0.392097	0.00564372
-0.452054	-0.0198066
-0.402092	0.0142202
-0.462068	-0.0176625
-0.412099	0.00665703
-0.472049	-0.0194395
-0.422117	0.00903612
-0.48209	-0.0194688
-0.432063	0.00581995
-0.492066	-0.0192779
-0.442085	0.00584932
-0.502062	-0.0212311
-0.452092	0.0143817
-0.51208	-0.0234487
-0.462084	0.0150279
-0.522056	-0.0237864
-0.472056	0.00819903
-0.532086	-0.0239627
-0.482078	0.00765566
-0.542047	-0.0246235
-0.492062	0.00690669
-0.552073	-0.0235515
-0.502043	0.008434
-0.562053	-0.0238599
-0.512065	0.00830183
-0.57206	-0.0319223
-0.52203	0.0114886
-0.582032	-0.0271642
-0.53204	0.0122963
-0.592016	-0.0336406
-0.54207	0.00811092
-0.602088	-0.0385162
-0.552035	0.0110921
-0.612061	-0.0390743
-0.562019	0.00852212
-0.622052	-0.0438324
-0.572045	0.0102844
-0.632036	-0.0454772
-0.582074	0.0195511
-0.64199	-0.0451835
-0.591978	0.0113124
-0.652008	-0.0508228
-0.602031	0.00565841
-0.661992	-0.0523648
-0.612061	0.00890395
-0.671991	-0.0511753
-0.621987	0.0147342
-0.682013	-0.0572111
-0.632067	0.0153069
-0.692005	-0.0564621
-0.642058	0.0145579
-0.702042	-0.0526439
-0.652088	0.0138677
-0.712103	-0.0581363
-0.662034	0.0116502
-0.722136	-0.055581
-0.672033	0.0148076
-0.732112	-0.0573286
-0.681987	0.0114593
-0.742066	-0.0634379
-0.692009	0.00855149
-0.752084	-0.0601189
-0.702057	0.0111655
-0.762106	-0.0584594
-0.712148	0.0191839
-0.772106	-0.059972
-0.72206	0.0115914
-0.782055	-0.0590028
-0.732082	0.0133243
-0.792131	-0.0595755
-0.74207	0.0106075
-0.802092	-0.0612056
-0.75205	0.00988789
-0.812038	-0.05843
-0.762026	0.00642206
-0.822086	-0.0572405
-0.772102	0.00451292
-0.832093	-0.0590175
-0.782086	0.00241286
-0.842093	-0.0601776
-0.792085	0.00524721
-0.852073	-0.0590615
-0.802107	0.00695075
-0.862122	-0.0591643
-0.812045	0.00950606
-0.87209	-0.0589293
-0.822113	0.00730321
-0.882059	-0.0596783
-0.832101	0.00899206
-0.892054	-0.0649505
-0.842093	0.00706823
-0.902023	-0.0698849
-0.852061	0.00705355
-0.912083	-0.0665659
-0.862053	0.00489475
-0.922151	-0.0632029
-0.872094	0.000151265
-0.932086	-0.0660225
-0.882047	0.00161984
-0.942024	-0.0600014
-0.892138	0.00436606
-0.952019	-0.0599573
-0.902061	0.00405766
-0.962057	-0.0624392
-0.912095	0.00554092
-0.972098	-0.063805
-0.922063	0.00443949
-0.982074	-0.0628504
-0.932055	0.00496818
-0.992066	-0.0613378
-0.942054	0.00405766
-1.00207	-0.0607504
-0.952042	0.00645143
-1.01202	-0.0622043
-0.962053	0.000841494
-1.02209	-0.0678876
-0.97209	0.00332338
-1.03211	-0.0631882
-0.982066	-0.00208096
-1.04205	-0.0678142
-0.992138	-0.00234531
-1.05203	-0.0699289
-1.00207	-0.00262433
-1.06202	-0.0736444
-1.01207	0.000724008
-1.07204	-0.0726605
-1.02204	-0.00497405
-1.08209	-0.074599
-1.03205	0.00213384
-1.09202	-0.0737179
-1.04203	-0.00103828
-1.102	-0.0783439
-1.0521	-0.00575239
-1.11203	-0.0797684
-1.06205	-0.00158165
-1.12212	-0.0865385
-1.07208	-0.00880702