File: VFSWV_data_prep/Example_data/CoPc(OMe)8_VFSWV_txt_data/CoPc(OMe)8_CNT_VFSWV_scans_15_14_C02.txt
Ewe/V	<I>/mA
-0.122083	-0.210471
-0.0720796	0.467274
-0.132106	-0.53528
-0.0821323	0.433292
-0.142055	-0.551699
-0.0920667	0.409109
-0.152081	-0.560099
-0.102093	0.407582
-0.162096	-0.571045
-0.112073	0.400963
-0.172064	-0.574354
-0.122106	0.409364
-0.18209	-0.587081
-0.132041	0.406054
-0.19212	-0.599682
-0.142097	0.403
-0.20207	-0.613682
-0.152073	0.414327
-0.212042	-0.636592
-0.162065	0.413818
-0.222072	-0.652883
-0.172018	0.416364
-0.232079	-0.668284
-0.182098	0.433928
-0.242089	-0.686611
-0.192047	0.436346
-0.252058	-0.712194
-0.202089	0.444746
-0.262023	-0.732431
-0.212092	0.456074
-0.272056	-0.751777
-0.222026	0.468165
-0.282128	-0.770486
-0.232063	0.49222
-0.292139	-0.787669
-0.242047	0.49553
-0.302123	-0.804214
-0.252054	0.507239
-0.312118	-0.823433
-0.262011	0.510675
-0.322156	-0.836033
-0.272079	0.516657
-0.332098	-0.851816
-0.282136	0.533203
-0.34207	-0.869507
-0.292162	0.529767
-0.352092	-0.87638
-0.302134	0.541476
-0.362118	-0.895853
-0.312095	0.544785
-0.372091	-0.917999
-0.322125	0.556495
-0.382086	-0.938109
-0.332143	0.564513
-0.392082	-0.956946
-0.342154	0.569859
-0.4021	-0.976928
-0.352089	0.586787
-0.412099	-1.00124
-0.362126	0.59646
-0.422102	-1.03726
-0.372076	0.603587
-0.432071	-1.07213
-0.382136	0.621151
-0.44212	-1.1168
-0.392127	0.640879
-0.452084	-1.15346
-0.402085	0.669389
-0.462088	-1.21341
-0.412084	0.691535
-0.47211	-1.25401
-0.422102	0.723099
-0.482067	-1.32146
-0.432094	0.748173
-0.492078	-1.40038
-0.44207	0.791192
-0.5021	-1.49851
-0.452088	0.835866
-0.512061	-1.61662
-0.462107	0.905995
-0.522087	-1.74619
-0.472064	0.988216
-0.532082	-1.92106
-0.482094	1.08482
-0.542108	-2.12941
-0.492093	1.21515
-0.5521	-2.36411
-0.502054	1.36673
-0.562038	-2.62515
-0.512057	1.54823
-0.572026	-2.9184
-0.522037	1.76091
-0.582044	-3.23277
-0.532086	1.98772
-0.592058	-3.54778
-0.54207	2.21045
-0.602069	-3.85197
-0.552096	2.41498
-0.612049	-4.14725
-0.562015	2.60462
-0.622006	-4.42089
-0.572091	2.76244
-0.632094	-4.66755
-0.582128	2.89443
-0.642058	-4.86471
-0.59207	2.98212
-0.652077	-5.02596
-0.602061	3.04805
-0.662015	-5.14013
-0.612126	3.08967
-0.672083	-5.21777
-0.622102	3.10965
-0.682048	-5.24322
-0.632082	3.1052
-0.692009	-5.22108
-0.642043	3.0814
-0.702019	-5.15184
-0.652008	3.03787
-0.71216	-5.05358
-0.662011	2.98085
-0.722113	-4.91154
-0.672045	2.91276
-0.732128	-4.73094
-0.682032	2.82023
-0.742115	-4.52755
-0.692093	2.71497
-0.752084	-4.30673
-0.702187	2.59228
-0.762133	-4.09341
-0.712133	2.46475
-0.772117	-3.87768
-0.722132	2.34282
-0.782116	-3.68244
-0.732124	2.21401
-0.792146	-3.49776
-0.742146	2.09132
-0.80213	-3.33319
-0.752122	1.98161
-0.812114	-3.20044
-0.762095	1.8808
-0.822128	-3.08118
-0.772087	1.78102
-0.832093	-2.98471
-0.782151	1.6904
-0.842104	-2.91496
-0.792093	1.61289
-0.852092	-2.85349
-0.802107	1.56452
-0.862114	-2.79354
-0.812076	1.51565
-0.872144	-2.76312
-0.822109	1.47734
-0.882082	-2.73588
-0.832135	1.44323
-0.892096	-2.72125
-0.842089	1.42465
-0.902103	-2.70979
-0.852111	1.39843
-0.912091	-2.70305
-0.862122	1.38226
-0.922098	-2.70674
-0.872117	1.37399
-0.932055	-2.7033
-0.882105	1.36152
-0.942108	-2.70967
-0.89207	1.36088
-0.95208	-2.72405
-0.902096	1.35197
-0.962076	-2.73092
-0.912095	1.34879
-0.972124	-2.73296
-0.922063	1.3577
-0.982082	-2.74098
-0.932044	1.35324
-0.9921	-2.74747
-0.942115	1.3661
-1.00205	-2.74428
-0.95208	1.36266
-1.01209	-2.75167
-0.962095	1.3773
-1.02203	-2.75421
-0.972067	1.3843
-1.03204	-2.75968
-0.982043	1.3899
-1.04206	-2.75739
-0.992089	1.37908
-1.05206	-2.75498
-1.00208	1.38964
-1.06209	-2.7551
-1.01204	1.39155
-1.07208	-2.76249
-1.02206	1.38481
-1.08207	-2.76032
-1.03208	1.39919
-1.0921	-2.76427
-1.04207	1.39092
-1.10208	-2.78018
-1.05208	1.39054
-1.11204	-2.79978
-1.06208	1.38901
-1.12214	-2.82663
-1.07207	1.39244