File: VFSWV_data_prep/Example_data/CoPc(OMe)8_VFSWV_txt_data/CoPc(OMe)8_CNT_VFSWV_scans_49_48_C02.txt
Ewe/V	<I>/mA
-0.122064	0.0125166
-0.07203	0.0301982
-0.132071	-0.00557616
-0.0820903	0.0169517
-0.142074	-0.00866016
-0.0920208	0.0218567
-0.152047	-0.00751467
-0.10207	0.0169517
-0.162023	-0.00792588
-0.112012	0.0202119
-0.172007	-0.00783776
-0.122061	0.0200651
-0.182037	-0.0099525
-0.132052	0.0145726
-0.192028	-0.0182059
-0.142086	0.0156594
-0.202043	-0.0137414
-0.152016	0.0209462
-0.212019	-0.016796
-0.162092	0.0242652
-0.222091	-0.0150044
-0.172057	0.0237071
-0.232021	-0.0165317
-0.182037	0.0210637
-0.242013	-0.0191751
-0.192059	0.017921
-0.252016	-0.0232284
-0.20202	0.0174217
-0.262053	-0.0228172
-0.212096	0.0218861
-0.272056	-0.0218186
-0.222041	0.0186259
-0.282159	-0.0254019
-0.23206	0.0137209
-0.292105	-0.0182352
-0.24199	0.0158943
-0.302104	-0.0237864
-0.25205	0.0229435
-0.312122	-0.0293964
-0.262019	0.0163055
-0.322072	-0.0309824
-0.272053	0.00875709
-0.332075	-0.0303069
-0.282109	0.0110187
-0.342116	-0.0354175
-0.292105	0.0141908
-0.352104	-0.0317461
-0.30213	0.0207113
-0.362122	-0.0289558
-0.312153	0.0196539
-0.372079	-0.0353882
-0.32214	0.0131334
-0.382109	-0.0296901
-0.332079	0.0145139
-0.392066	-0.0360637
-0.342082	0.00963823
-0.4021	-0.0352119
-0.352115	0.0182734
-0.412061	-0.0359462
-0.362118	0.0169517
-0.422041	-0.0388834
-0.372064	0.0177154
-0.432067	-0.0368274
-0.382082	0.0194189
-0.442074	-0.0397645
-0.392093	0.0101963
-0.452069	-0.0399701
-0.402062	0.0141614
-0.46208	-0.0381197
-0.412095	0.0150132
-0.472079	-0.0374735
-0.422049	0.0134565
-0.48204	-0.0430541
-0.432067	0.0155419
-0.492047	-0.0427604
-0.442074	0.0166874
-0.5021	-0.0440821
-0.452016	0.0137502
-0.512065	-0.0462262
-0.46208	0.0192133
-0.521995	-0.0472836
-0.472083	0.0182734
-0.531991	-0.0489284
-0.482059	0.0167167
-0.542055	-0.0547145
-0.491997	0.0191252
-0.552039	-0.0559775
-0.502069	0.0175098
-0.562038	-0.0618812
-0.51213	0.0182441
-0.572068	-0.0681373
-0.522026	0.0169223
-0.58199	-0.0756857
-0.532067	0.0253519
-0.59207	-0.0812369
-0.541986	0.025675
-0.602012	-0.0906652
-0.552035	0.0286709
-0.612011	-0.0948653
-0.562068	0.0333116
-0.622026	-0.10074
-0.572049	0.034134
-0.632029	-0.118362
-0.582025	0.043151
-0.642032	-0.119713
-0.592062	0.0482616
-0.652023	-0.127585
-0.601993	0.0535779
-0.661988	-0.13434
-0.612011	0.062125
-0.671995	-0.136661
-0.622037	0.0604802
-0.681983	-0.138511
-0.632048	0.0612144
-0.692032	-0.135075
-0.642005	0.0653558
-0.701993	-0.137219
-0.652023	0.0651796
-0.712091	-0.135692
-0.661988	0.0638285
-0.722106	-0.136455
-0.672037	0.0588354
-0.732074	-0.13625
-0.682017	0.0557807
-0.742081	-0.130522
-0.691993	0.0534604
-0.752069	-0.124619
-0.702138	0.0503764
-0.762076	-0.128789
-0.712106	0.0380698
-0.772067	-0.122416
-0.722052	0.0471749
-0.782029	-0.128525
-0.732071	0.0375411
-0.792047	-0.125823
-0.742123	0.0455301
-0.802073	-0.11754
-0.752134	0.0388628
-0.812091	-0.116218
-0.762061	0.035162
-0.822048	-0.118392
-0.772136	0.0382166
-0.832086	-0.125177
-0.782067	0.0351032
-0.842051	-0.1166
-0.792108	0.0364543
-0.85205	-0.121182
-0.802038	0.0295227
-0.862076	-0.116659
-0.812049	0.0289059
-0.872075	-0.116483
-0.822083	0.0307857
-0.882059	-0.11986
-0.832078	0.0316962
-0.892108	-0.118539
-0.842024	0.0320193
-0.902065	-0.116659
-0.852061	0.0312262
-0.912068	-0.121535
-0.862053	0.0362487
-0.922067	-0.117129
-0.872071	0.0353676
-0.932028	-0.114926
-0.882105	0.0327829
-0.942043	-0.121182
-0.892085	0.039274
-0.952019	-0.118685
-0.902042	0.0354557
-0.962072	-0.11754
-0.912022	0.0295521
-0.971998	-0.120712
-0.922082	0.0363662
-0.982051	-0.116101
-0.932032	0.0360138
-0.992027	-0.120741
-0.942039	0.0350739
-1.00202	-0.126175
-0.952008	0.0356613
-1.012	-0.128731
-0.962072	0.0321955
-1.02198	-0.121035
-0.971964	0.0245295
-1.03199	-0.122063
-0.982063	0.0325479
-1.04207	-0.131374
-0.992043	0.033899
-1.052	-0.126351
-1.00202	0.035955
-1.06201	-0.121476
-1.01203	0.0333703
-1.072	-0.12547
-1.02201	0.0266149
-1.08202	-0.130669
-1.03201	0.033899
-1.09201	-0.130375
-1.04206	0.0291996
-1.10206	-0.140244
-1.05205	0.0316962
-1.11201	-0.143622
-1.06195	0.0213281
-1.1221	-0.143651
-1.07198	0.0251463