File: VFSWV_data_prep/Example_data/CoPc(OMe)8_VFSWV_txt_data/CoPc(OMe)8_CNT_VFSWV_scans_21_20_C02.txt
Ewe/V	<I>/mA
-0.122045	-0.0669037
-0.0721026	0.21059
-0.132083	-0.201116
-0.0820865	0.193312
-0.142059	-0.215339
-0.0920629	0.174889
-0.152047	-0.214576
-0.102058	0.183862
-0.162073	-0.216389
-0.112061	0.177085
-0.172026	-0.231567
-0.122061	0.172885
-0.182029	-0.243881
-0.132044	0.167539
-0.19204	-0.252377
-0.142078	0.167825
-0.202005	-0.247222
-0.152031	0.174794
-0.212027	-0.257245
-0.162084	0.171357
-0.222064	-0.275287
-0.172064	0.175271
-0.232052	-0.288364
-0.182033	0.177467
-0.242036	-0.293232
-0.19207	0.189303
-0.252024	-0.30841
-0.202062	0.192071
-0.262046	-0.315092
-0.212042	0.202763
-0.272049	-0.326929
-0.22203	0.20219
-0.282155	-0.339816
-0.232052	0.204958
-0.292089	-0.351175
-0.242021	0.214504
-0.302115	-0.364062
-0.252035	0.21689
-0.312084	-0.373321
-0.262	0.223095
-0.322137	-0.378571
-0.272037	0.227104
-0.332086	-0.389931
-0.282121	0.233404
-0.342108	-0.405967
-0.292143	0.2356
-0.352096	-0.415895
-0.302127	0.236268
-0.362099	-0.420954
-0.312141	0.2377
-0.372102	-0.434414
-0.322148	0.247055
-0.382109	-0.446632
-0.332067	0.252878
-0.39212	-0.462573
-0.34215	0.253832
-0.402077	-0.473742
-0.352092	0.25555
-0.412107	-0.486438
-0.362122	0.26481
-0.422083	-0.505052
-0.372091	0.271014
-0.432067	-0.527675
-0.382113	0.278365
-0.44207	-0.546767
-0.392112	0.287719
-0.452073	-0.569963
-0.4021	0.297647
-0.462061	-0.602227
-0.41205	0.312347
-0.472064	-0.640887
-0.422102	0.325234
-0.48209	-0.673438
-0.432109	0.352439
-0.492028	-0.72909
-0.442085	0.364658
-0.50202	-0.786841
-0.452088	0.397113
-0.51208	-0.857193
-0.462088	0.427946
-0.521995	-0.957423
-0.472018	0.478156
-0.532075	-1.08448
-0.482021	0.53944
-0.542024	-1.23138
-0.492062	0.62411
-0.552042	-1.40865
-0.50205	0.727109
-0.562034	-1.62305
-0.512053	0.863135
-0.572056	-1.86064
-0.522045	1.02723
-0.581952	-2.11656
-0.53204	1.22396
-0.592043	-2.39453
-0.542074	1.44227
-0.602061	-2.66763
-0.552012	1.66106
-0.612068	-2.93549
-0.562023	1.87441
-0.622033	-3.18301
-0.572033	2.06866
-0.632059	-3.40427
-0.582044	2.23476
-0.642066	-3.59213
-0.592024	2.37088
-0.651977	-3.73589
-0.602035	2.46252
-0.662038	-3.83631
-0.612068	2.528
-0.672041	-3.89187
-0.622068	2.56771
-0.682086	-3.89779
-0.632067	2.56743
-0.692012	-3.85894
-0.642016	2.5385
-0.702031	-3.77465
-0.652023	2.49507
-0.712137	-3.65265
-0.662015	2.42854
-0.722144	-3.49391
-0.672033	2.33356
-0.732109	-3.32161
-0.682021	2.22273
-0.7421	-3.12535
-0.692013	2.09921
-0.7521	-2.92308
-0.702096	1.95583
-0.762129	-2.72109
-0.712103	1.82429
-0.772113	-2.54001
-0.722129	1.69313
-0.782109	-2.36971
-0.73204	1.56503
-0.792081	-2.22968
-0.74207	1.44055
-0.802107	-2.10319
-0.752115	1.33536
-0.812053	-2.00516
-0.762034	1.23819
-0.822071	-1.92183
-0.772113	1.15056
-0.832143	-1.84842
-0.782097	1.0823
-0.842066	-1.7899
-0.792119	1.02818
-0.852126	-1.74895
-0.802107	0.983984
-0.862091	-1.72146
-0.812106	0.934919
-0.872151	-1.69884
-0.822117	0.907618
-0.882112	-1.68061
-0.832059	0.884231
-0.892047	-1.66715
-0.842108	0.869626
-0.90205	-1.66419
-0.852046	0.847671
-0.912049	-1.66361
-0.862129	0.835452
-0.92206	-1.66772
-0.872128	0.834689
-0.93207	-1.67154
-0.882047	0.819988
-0.942092	-1.6723
-0.892073	0.820752
-0.952057	-1.68519
-0.902069	0.812543
-0.962095	-1.69158
-0.912064	0.825238
-0.972098	-1.69225
-0.922052	0.816265
-0.982101	-1.69216
-0.932059	0.829629
-0.992043	-1.69149
-0.941978	0.827529
-1.00207	-1.69177
-0.952008	0.829916
-1.01195	-1.69664
-0.96203	0.834784
-1.02206	-1.6933
-0.972067	0.837266
-1.03209	-1.69664
-0.98204	0.842516
-1.04203	-1.69874
-0.99205	0.841848
-1.052	-1.70132
-1.00208	0.838984
-1.06209	-1.70122
-1.01204	0.843471
-1.07206	-1.70504
-1.02204	0.842325
-1.08206	-1.70667
-1.03203	0.834116
-1.09201	-1.71936
-1.04209	0.839366
-1.10204	-1.73273
-1.05205	0.847575
-1.11203	-1.74475
-1.062	0.846239
-1.12212	-1.76451
-1.07203	0.848816