File: VFSWV_data_prep/Example_data/CoPc(OMe)8_VFSWV_txt_data/CoPc(OMe)8_CNT_VFSWV_scans_44_43_C02.txt
Ewe/V	<I>/mA
-0.122041	-0.017266
-0.072114	0.0369918
-0.132071	-0.0169223
-0.0821323	0.0331735
-0.14204	-0.0108513
-0.0920591	0.024697
-0.152024	-0.00443655
-0.102077	0.0285534
-0.162084	-0.00997306
-0.112107	0.0319135
-0.172095	-0.023108
-0.12211	0.0298135
-0.182056	-0.0200533
-0.132067	0.0248497
-0.192036	-0.0151277
-0.14207	0.0263006
-0.202005	-0.0168078
-0.152047	0.0299662
-0.212054	-0.0199388
-0.162054	0.0314935
-0.22203	-0.0222679
-0.172057	0.0288207
-0.232025	-0.0166932
-0.182037	0.0321044
-0.242005	-0.0188315
-0.192063	0.0300044
-0.252058	-0.0250935
-0.202035	0.0294698
-0.262008	-0.0324628
-0.21205	0.0330208
-0.272022	-0.0264299
-0.222068	0.0270261
-0.282079	-0.0317373
-0.232048	0.0260334
-0.292143	-0.033761
-0.242063	0.0270261
-0.302123	-0.0357083
-0.252035	0.0203059
-0.312107	-0.0401757
-0.262008	0.0212223
-0.322156	-0.0443376
-0.272034	0.0229024
-0.332086	-0.0390684
-0.282105	0.0195041
-0.342108	-0.0429249
-0.292116	0.0220623
-0.352066	-0.0420085
-0.302153	0.0168695
-0.362099	-0.0464377
-0.312145	0.0183204
-0.372053	-0.0481559
-0.32214	0.0204968
-0.382079	-0.0502941
-0.332094	0.0243915
-0.392101	-0.0481177
-0.342074	0.0245824
-0.402111	-0.0484996
-0.352108	0.0206878
-0.412118	-0.0476977
-0.362145	0.0203823
-0.422091	-0.0539597
-0.372075	0.0233987
-0.432098	-0.0606035
-0.382059	0.0195805
-0.442108	-0.0552579
-0.392112	0.0159149
-0.452127	-0.0557161
-0.402134	0.0245824
-0.462099	-0.0598399
-0.412046	0.0318753
-0.472056	-0.0580834
-0.422075	0.0320281
-0.482071	-0.0641545
-0.432063	0.021986
-0.492089	-0.0624363
-0.442085	0.0220242
-0.502058	-0.0672091
-0.452085	0.022826
-0.512149	-0.0710274
-0.462095	0.024086
-0.522022	-0.0750366
-0.472136	0.026377
-0.532113	-0.0785876
-0.482063	0.0254606
-0.542074	-0.0832078
-0.492074	0.0250024
-0.552065	-0.0929444
-0.502054	0.0296225
-0.562023	-0.103636
-0.512088	0.0316462
-0.572049	-0.115243
-0.522071	0.0368391
-0.582025	-0.126163
-0.532067	0.0331735
-0.592051	-0.148615
-0.542089	0.0471867
-0.602054	-0.168661
-0.552046	0.0590997
-0.612042	-0.191571
-0.562026	0.0625362
-0.622064	-0.214442
-0.572052	0.0801766
-0.632002	-0.242239
-0.582048	0.094037
-0.642047	-0.258658
-0.592055	0.113778
-0.651996	-0.272136
-0.602042	0.130731
-0.662026	-0.28531
-0.612049	0.141575
-0.672071	-0.287753
-0.622037	0.157115
-0.682032	-0.285959
-0.632029	0.170785
-0.691997	-0.268585
-0.642035	0.173457
-0.702046	-0.2582
-0.652004	0.162881
-0.712141	-0.247585
-0.661965	0.165286
-0.722144	-0.23403
-0.672037	0.148409
-0.732131	-0.221315
-0.68204	0.137833
-0.742104	-0.217344
-0.692032	0.121987
-0.752115	-0.207646
-0.70213	0.103659
-0.762091	-0.199475
-0.712099	0.0965189
-0.772056	-0.194434
-0.722136	0.0865532
-0.78209	-0.195122
-0.732048	0.0755947
-0.79207	-0.18676
-0.742058	0.06876
-0.802103	-0.186187
-0.752122	0.0665453
-0.812072	-0.18718
-0.762091	0.0616198
-0.822052	-0.189089
-0.77209	0.0587179
-0.832105	-0.187981
-0.782063	0.0521886
-0.842096	-0.184583
-0.792062	0.0536777
-0.852084	-0.186607
-0.802057	0.054785
-0.862045	-0.191876
-0.812076	0.0507377
-0.872071	-0.188287
-0.822113	0.0494013
-0.88212	-0.189623
-0.83212	0.0479121
-0.892092	-0.188974
-0.842108	0.0478358
-0.90205	-0.192143
-0.852084	0.0496304
-0.912095	-0.195236
-0.862091	0.0471103
-0.922117	-0.194625
-0.872109	0.0431011
-0.93212	-0.192602
-0.882086	0.0454302
-0.94207	-0.197069
-0.892066	0.0457739
-0.952069	-0.1918
-0.902076	0.0431011
-0.962087	-0.191991
-0.912026	0.0469957
-0.972021	-0.189051
-0.922033	0.0459266
-0.982047	-0.187332
-0.932055	0.0452775
-0.992024	-0.193671
-0.942047	0.0477212
-1.00212	-0.186683
-0.952069	0.049134
-1.01205	-0.189509
-0.962098	0.0476067
-1.02211	-0.188592
-0.972082	0.0500122
-1.03201	-0.190425
-0.982051	0.0464994
-1.04205	-0.194091
-0.992089	0.0476067
-1.05202	-0.194511
-1.00205	0.043292
-1.06202	-0.196993
-1.01206	0.0489049
-1.07205	-0.196305
-1.02204	0.0442084
-1.08202	-0.202987
-1.03204	0.0474157
-1.09203	-0.201078
-1.04203	0.0473012
-1.10205	-0.200925
-1.05205	0.0431393
-1.11201	-0.212075
-1.06201	0.0474157
-1.12214	-0.218642
-1.07196	0.0464612