File: VFSWV_data_prep/Example_data/CoPc(OMe)8_VFSWV_txt_data/CoPc(OMe)8_CNT_VFSWV_scans_38_37_C02.txt
Ewe/V	<I>/mA
-0.122095	-0.0176478
-0.0720873	0.0486812
-0.13206	-0.0293754
-0.0820636	0.0386446
-0.142101	-0.0361392
-0.0920972	0.0382082
-0.1521	-0.0358665
-0.102054	0.0364082
-0.16208	-0.0333573
-0.112084	0.0302989
-0.172053	-0.0416485
-0.122091	0.0324808
-0.182018	-0.0405575
-0.132029	0.0276261
-0.192089	-0.048685
-0.142051	0.0266988
-0.20207	-0.042903
-0.152031	0.0289898
-0.212046	-0.0496123
-0.162099	0.0278989
-0.222072	-0.0545761
-0.172064	0.0242442
-0.23201	-0.0523397
-0.182048	0.0347172
-0.242066	-0.056267
-0.192051	0.0322081
-0.252031	-0.0583398
-0.202012	0.0312262
-0.262053	-0.0612308
-0.212023	0.0278443
-0.272003	-0.0656491
-0.222037	0.0337354
-0.28214	-0.0679946
-0.232014	0.0315535
-0.29207	-0.0700129
-0.24207	0.0304626
-0.302081	-0.0783585
-0.252043	0.0282807
-0.312122	-0.0799404
-0.262107	0.0275716
-0.322106	-0.0785222
-0.272087	0.0308444
-0.332121	-0.0758494
-0.282166	0.0305171
-0.342093	-0.0829405
-0.292105	0.0283898
-0.352149	-0.085286
-0.302127	0.0314444
-0.362076	-0.0838678
-0.312134	0.0257715
-0.372098	-0.0876861
-0.322137	0.0311171
-0.382078	-0.0883406
-0.332124	0.0324263
-0.392146	-0.100232
-0.342131	0.0299716
-0.402123	-0.0966863
-0.352096	0.0310626
-0.41208	-0.0970136
-0.362088	0.0362445
-0.422095	-0.0985954
-0.372045	0.0353718
-0.432101	-0.10885
-0.382136	0.0253897
-0.442055	-0.10285
-0.392085	0.03679
-0.452004	-0.106287
-0.402043	0.0356445
-0.462076	-0.111305
-0.412114	0.03679
-0.472075	-0.118505
-0.422068	0.0416992
-0.482082	-0.12336
-0.43209	0.0420811
-0.492066	-0.128051
-0.442135	0.0453539
-0.502077	-0.134924
-0.452065	0.043172
-0.512065	-0.14016
-0.462118	0.0491176
-0.522087	-0.148833
-0.472075	0.0518995
-0.532052	-0.162088
-0.482067	0.0601906
-0.541997	-0.18478
-0.492089	0.0566451
-0.551993	-0.214235
-0.502073	0.0586633
-0.562023	-0.254
-0.512068	0.0690818
-0.572037	-0.298292
-0.52203	0.0910097
-0.582006	-0.35633
-0.532086	0.11261
-0.592047	-0.427895
-0.542036	0.147138
-0.602065	-0.50617
-0.552077	0.182758
-0.612038	-0.593718
-0.561996	0.247396
-0.621991	-0.677993
-0.572091	0.305161
-0.632063	-0.752395
-0.582067	0.388618
-0.642005	-0.825215
-0.591997	0.457183
-0.652004	-0.869562
-0.602008	0.516312
-0.662007	-0.899944
-0.612064	0.565895
-0.672056	-0.911181
-0.62206	0.607514
-0.682013	-0.892199
-0.632052	0.620006
-0.692001	-0.854616
-0.642013	0.619406
-0.702031	-0.811251
-0.651989	0.601623
-0.712129	-0.749831
-0.662007	0.568022
-0.722132	-0.684048
-0.672037	0.52253
-0.732112	-0.623719
-0.682006	0.475784
-0.7421	-0.569608
-0.69202	0.415291
-0.752111	-0.525152
-0.702138	0.36849
-0.762137	-0.48686
-0.712091	0.322725
-0.772075	-0.452441
-0.722098	0.274451
-0.782086	-0.434223
-0.732093	0.244341
-0.792073	-0.405858
-0.742112	0.215813
-0.802084	-0.398658
-0.752122	0.191758
-0.812087	-0.386985
-0.762083	0.175176
-0.822117	-0.376512
-0.772102	0.151502
-0.832124	-0.373512
-0.782082	0.142393
-0.842054	-0.364512
-0.792112	0.131702
-0.852042	-0.366366
-0.802092	0.12652
-0.862053	-0.365275
-0.812083	0.114519
-0.872079	-0.370021
-0.822071	0.114356
-0.882105	-0.368603
-0.832109	0.111574
-0.892077	-0.364075
-0.842119	0.109665
-0.902092	-0.372639
-0.852061	0.10481
-0.912064	-0.371276
-0.862072	0.104319
-0.922071	-0.370785
-0.872098	0.105574
-0.932074	-0.374876
-0.882059	0.110319
-0.942031	-0.375203
-0.892035	0.104865
-0.95205	-0.369748
-0.902076	0.110047
-0.962079	-0.367621
-0.91206	0.109883
-0.972079	-0.364675
-0.922056	0.10841
-0.982032	-0.36473
-0.932028	0.109992
-0.992016	-0.359821
-0.942005	0.105301
-1.00202	-0.371275
-0.95208	0.107101
-1.01207	-0.36893
-0.962076	0.110865
-1.02206	-0.370403
-0.972029	0.110647
-1.03207	-0.36713
-0.982024	0.114628
-1.04205	-0.370566
-0.99205	0.116974
-1.05208	-0.368657
-1.00203	0.113265
-1.06205	-0.375639
-1.01205	0.105083
-1.07204	-0.377439
-1.02204	0.109501
-1.08214	-0.378094
-1.03207	0.10601
-1.09199	-0.380712
-1.04207	0.109119
-1.10198	-0.393258
-1.05197	0.110701
-1.11202	-0.39904
-1.06205	0.109501
-1.12214	-0.39364
-1.07199	0.116538